File: inn/kurimoto_2004/450C/raman/curve_2_fit.dat
414.631,6.62988e-32
415.031,1.3767e-31
415.431,2.84787e-31
415.831,5.86876e-31
416.231,1.20481e-30
416.631,2.46398e-30
417.031,5.01998e-30
417.431,1.01886e-29
417.831,2.06001e-29
418.231,4.14927e-29
418.631,8.3257e-29
419.031,1.66424e-28
419.431,3.31403e-28
419.831,6.57421e-28
420.231,1.2992e-27
420.631,2.55773e-27
421.031,5.01627e-27
421.431,9.80058e-27
421.831,1.90752e-26
422.231,3.69856e-26
422.631,7.14401e-26
423.031,1.37467e-25
423.431,2.63511e-25
423.831,5.03207e-25
424.231,9.57283e-25
424.631,1.81418e-24
425.031,3.42504e-24
425.431,6.44166e-24
425.831,1.20691e-23
426.231,2.25268e-23
426.631,4.18861e-23
427.031,7.75865e-23
427.431,1.43169e-22
427.831,2.63182e-22
428.231,4.8196e-22
428.631,8.79248e-22
429.031,1.59793e-21
429.431,2.89301e-21
429.831,5.21782e-21
430.231,9.37505e-21
430.631,1.67805e-20
431.031,2.99213e-20
431.431,5.31501e-20
431.831,9.40531e-20
432.231,1.65801e-19
432.631,2.91172e-19
433.031,5.09397e-19
433.431,8.87788e-19
433.831,1.54138e-18
434.231,2.66596e-18
434.631,4.59352e-18
435.031,7.88466e-18
435.431,1.34824e-17
435.831,2.29666e-17
436.231,3.89737e-17
436.631,6.58861e-17
437.031,1.10959e-16
437.431,1.86155e-16
437.831,3.11125e-16
438.231,5.18014e-16
438.631,8.59198e-16
439.031,1.41968e-15
439.431,2.33688e-15
439.831,3.832e-15
440.231,6.25982e-15
440.631,1.0187e-14
441.031,1.65148e-14
441.431,2.66715e-14
441.831,4.2911e-14
442.231,6.87757e-14
442.631,1.09811e-13
443.031,1.74665e-13
443.431,2.76765e-13
443.831,4.3688e-13
444.231,6.87004e-13
444.631,1.07622e-12
445.031,1.67954e-12
445.431,2.61112e-12
445.831,4.04397e-12
446.231,6.23929e-12
446.631,9.58978e-12
447.031,1.46834e-11
447.431,2.23972e-11
447.831,3.40334e-11
448.231,5.15184e-11
448.631,7.76902e-11
449.031,1.16712e-10
449.431,1.74668e-10
449.831,2.60408e-10
450.231,3.8676e-10
450.631,5.72237e-10
451.031,8.43444e-10
451.431,1.23846e-09
451.831,1.81157e-09
452.231,2.63981e-09
452.631,3.8321e-09
453.031,5.54176e-09
453.431,7.9837e-09
453.831,1.14579e-08
454.231,1.63816e-08
454.631,2.33319e-08
455.031,3.31048e-08
455.431,4.67927e-08
455.831,6.58887e-08
456.231,9.24251e-08
456.631,1.29156e-07
457.031,1.79798e-07
457.431,2.49346e-07
457.831,3.44482e-07
458.231,4.74106e-07
458.631,6.50027e-07
459.031,8.87836e-07
459.431,1.20804e-06
459.831,1.63747e-06
460.231,2.21112e-06
460.631,2.9744e-06
461.031,3.98594e-06
461.431,5.32119e-06
461.831,7.07673e-06
462.231,9.37567e-06
462.631,1.23742e-05
463.031,1.62697e-05
463.431,2.13103e-05
463.831,2.78063e-05
464.231,3.61446e-05
464.631,4.68047e-05
465.031,6.03785e-05
465.431,7.75927e-05
465.831,9.93357e-05
466.231,0.000126688
466.631,0.000160958
467.031,0.000203721
467.431,0.000256865
467.831,0.000322641
468.231,0.00040372
468.631,0.000503254
469.031,0.000624943
469.431,0.000773106
469.831,0.000952762
470.231,0.0011697
470.631,0.00143058
471.031,0.001743
471.431,0.00211556
471.831,0.00255801
472.231,0.00308122
472.631,0.00369735
473.031,0.00441982
473.431,0.00526338
473.831,0.00624411
474.231,0.00737942
474.631,0.00868801
475.031,0.0101898
475.431,0.0119057
475.831,0.0138577
476.231,0.0160684
476.631,0.018561
477.031,0.0213588
477.431,0.0244848
477.831,0.0279617
478.231,0.0318109
478.631,0.0360524
479.031,0.0407042
479.431,0.0457815
479.831,0.0512964
480.231,0.0572571
480.631,0.0636676
481.031,0.0705267
481.431,0.0778278
481.831,0.0855583
482.231,0.0936991
482.631,0.102224
483.031,0.111102
483.431,0.120291
483.831,0.129745
484.231,0.13941
484.631,0.149225
485.031,0.159125
485.431,0.169036
485.831,0.178882
486.231,0.188583
486.631,0.198053
487.031,0.207209
487.431,0.215963
487.831,0.224232
488.231,0.231933
488.631,0.238986
489.031,0.245318
489.431,0.25086
489.831,0.255552
490.231,0.259343
490.631,0.26219
491.031,0.26406
491.431,0.264932
491.831,0.264802
492.231,0.263688
492.631,0.261604
493.031,0.258573
493.431,0.254629
493.831,0.249814
494.231,0.244181
494.631,0.237788
495.031,0.230704
495.431,0.222999
495.831,0.214752
496.231,0.206043
496.631,0.196952
497.031,0.187564
497.431,0.177961
497.831,0.168222
498.231,0.158427
498.631,0.148647
499.031,0.138954
499.431,0.129411
499.831,0.120076
500.231,0.111
500.631,0.10223
501.031,0.0938033
501.431,0.0857516
501.831,0.0781001
502.231,0.0708673
502.631,0.0640657
503.031,0.0577019
503.431,0.0517773
503.831,0.0462886
504.231,0.0412281
504.631,0.0365845
505.031,0.0323435
505.431,0.028488
505.831,0.0249989
506.231,0.0218557
506.631,0.0190368
507.031,0.01652
507.431,0.0142826
507.831,0.0123025
508.131,0.0109729