File: inn/kurimoto_2004/450C/raman/curve_total_fit.dat
414.631,0.816565
415.031,0.830927
415.431,0.848221
415.831,0.869065
416.231,0.894095
416.631,0.92381
417.031,0.958264
417.431,0.996512
417.831,1.03587
418.231,1.07139
418.631,1.09635
419.031,1.10465
419.431,1.09419
419.831,1.06801
420.231,1.03237
420.631,0.993703
421.031,0.956584
421.431,0.923391
421.831,0.894902
422.231,0.870998
422.631,0.851165
423.031,0.834778
423.431,0.821239
423.831,0.810025
424.231,0.800701
424.631,0.792916
425.031,0.786384
425.431,0.780881
425.831,0.776225
426.231,0.772271
426.631,0.768904
427.031,0.766028
427.431,0.763568
427.831,0.761461
428.231,0.759657
428.631,0.758112
429.031,0.756793
429.431,0.755669
429.831,0.754716
430.231,0.753913
430.631,0.753242
431.031,0.75269
431.431,0.752242
431.831,0.751888
432.231,0.751618
432.631,0.751424
433.031,0.751298
433.431,0.751236
433.831,0.751229
434.231,0.751275
434.631,0.751369
435.031,0.751506
435.431,0.751683
435.831,0.751898
436.231,0.752147
436.631,0.752428
437.031,0.752739
437.431,0.753077
437.831,0.753441
438.231,0.753829
438.631,0.754239
439.031,0.75467
439.431,0.755121
439.831,0.755589
440.231,0.756075
440.631,0.756576
441.031,0.757092
441.431,0.757622
441.831,0.758164
442.231,0.758718
442.631,0.759282
443.031,0.759857
443.431,0.760441
443.831,0.761033
444.231,0.761633
444.631,0.762239
445.031,0.762851
445.431,0.763469
445.831,0.76409
446.231,0.764716
446.631,0.765345
447.031,0.765976
447.431,0.766609
447.831,0.767243
448.231,0.767878
448.631,0.768512
449.031,0.769145
449.431,0.769776
449.831,0.770406
450.231,0.771032
450.631,0.771655
451.031,0.772274
451.431,0.772888
451.831,0.773497
452.231,0.7741
452.631,0.774697
453.031,0.775286
453.431,0.775868
453.831,0.776442
454.231,0.777006
454.631,0.777562
455.031,0.778107
455.431,0.778642
455.831,0.779166
456.231,0.779679
456.631,0.780179
457.031,0.780667
457.431,0.781142
457.831,0.781604
458.231,0.782051
458.631,0.782485
459.031,0.782903
459.431,0.783307
459.831,0.783695
460.231,0.784067
460.631,0.784422
461.031,0.784761
461.431,0.785084
461.831,0.785389
462.231,0.785677
462.631,0.785947
463.031,0.7862
463.431,0.786436
463.831,0.786654
464.231,0.786854
464.631,0.787038
465.031,0.787205
465.431,0.787356
465.831,0.787491
466.231,0.787612
466.631,0.78772
467.031,0.787816
467.431,0.787902
467.831,0.78798
468.231,0.788053
468.631,0.788125
469.031,0.788198
469.431,0.788276
469.831,0.788366
470.231,0.788473
470.631,0.788604
471.031,0.788766
471.431,0.788968
471.831,0.78922
472.231,0.789533
472.631,0.78992
473.031,0.790393
473.431,0.790968
473.831,0.791662
474.231,0.792491
474.631,0.793475
475.031,0.794634
475.431,0.795989
475.831,0.797563
476.231,0.799378
476.631,0.801458
477.031,0.803827
477.431,0.806507
477.831,0.809523
478.231,0.812895
478.631,0.816645
479.031,0.82079
479.431,0.825347
479.831,0.830327
480.231,0.83574
480.631,0.84159
481.031,0.847876
481.431,0.854591
481.831,0.861725
482.231,0.869258
482.631,0.877164
483.031,0.885413
483.431,0.893963
483.831,0.90277
484.231,0.911779
484.631,0.92093
485.031,0.930158
485.431,0.93939
485.831,0.948551
486.231,0.957559
486.631,0.966332
487.031,0.974785
487.431,0.982833
487.831,0.99039
488.231,0.997376
488.631,1.00371
489.031,1.00932
489.431,1.01414
489.831,1.01811
490.231,1.02117
490.631,1.02329
491.031,1.02444
491.431,1.02458
491.831,1.02372
492.231,1.02188
492.631,1.01908
493.031,1.01532
493.431,1.01066
493.831,1.00513
494.231,0.998777
494.631,0.991673
495.031,0.983881
495.431,0.975472
495.831,0.966526
496.231,0.957122
496.631,0.947342
497.031,0.937269
497.431,0.926987
497.831,0.916576
498.231,0.906114
498.631,0.895674
499.031,0.885328
499.431,0.875138
499.831,0.865163
500.231,0.855456
500.631,0.846062
501.031,0.837018
501.431,0.828358
501.831,0.820106
502.231,0.812281
502.631,0.804896
503.031,0.797957
503.431,0.791466
503.831,0.78542
504.231,0.77981
504.631,0.774627
505.031,0.769855
505.431,0.765478
505.831,0.761477
506.231,0.75783
506.631,0.754518
507.031,0.751516
507.431,0.748804
507.831,0.746358
508.131,0.744685