File: inn/kurimoto_2004/450C/raman/curve_1_fit.dat
414.631,0.0935511
415.031,0.107731
415.431,0.124837
415.831,0.145487
416.231,0.170316
416.631,0.199824
417.031,0.234064
417.431,0.272091
417.831,0.311224
418.231,0.346503
418.631,0.371222
419.031,0.379275
419.431,0.368557
419.831,0.34211
420.231,0.3062
420.631,0.267257
421.031,0.22985
421.431,0.196361
421.831,0.167568
422.231,0.143351
422.631,0.123197
423.031,0.106481
423.431,0.0926038
423.831,0.0810433
424.231,0.0713646
424.631,0.0632148
425.031,0.0563105
425.431,0.0504252
425.831,0.0453781
426.231,0.0410242
426.631,0.0372471
427.031,0.0339528
427.431,0.0310649
427.831,0.0285212
428.231,0.0262703
428.631,0.0242701
429.031,0.0224854
429.431,0.020887
429.831,0.0194504
430.231,0.0181546
430.631,0.0169823
431.031,0.0159184
431.431,0.0149501
431.831,0.0140665
432.231,0.0132581
432.631,0.0125167
433.031,0.0118351
433.431,0.0112072
433.831,0.0106275
434.231,0.0100913
434.631,0.00959429
435.031,0.00913285
435.431,0.00870366
435.831,0.00830382
436.231,0.00793072
436.631,0.00758205
437.031,0.00725574
437.431,0.00694992
437.831,0.00666292
438.231,0.00639325
438.631,0.00613953
439.031,0.00590055
439.431,0.00567518
439.831,0.00546243
440.231,0.00526136
440.631,0.00507115
441.031,0.00489102
441.431,0.00472029
441.831,0.0045583
442.231,0.00440449
442.631,0.0042583
443.031,0.00411924
443.431,0.00398686
443.831,0.00386074
444.231,0.0037405
444.631,0.00362576
445.031,0.00351621
445.431,0.00341154
445.831,0.00331146
446.231,0.0032157
446.631,0.00312403
447.031,0.00303622
447.431,0.00295204
447.831,0.00287131
448.231,0.00279384
448.631,0.00271946
449.031,0.002648
449.431,0.00257931
449.831,0.00251325
450.231,0.0024497
450.631,0.00238852
451.031,0.0023296
451.431,0.00227283
451.831,0.00221811
452.231,0.00216533
452.631,0.00211442
453.031,0.00206527
453.431,0.00201782
453.831,0.00197198
454.231,0.00192768
454.631,0.00188485
455.031,0.00184344
455.431,0.00180337
455.831,0.00176459
456.231,0.00172705
456.631,0.00169069
457.031,0.00165547
457.431,0.00162133
457.831,0.00158824
458.231,0.00155615
458.631,0.00152502
459.031,0.00149482
459.431,0.0014655
459.831,0.00143703
460.231,0.00140939
460.631,0.00138253
461.031,0.00135644
461.431,0.00133107
461.831,0.00130641
462.231,0.00128243
462.631,0.0012591
463.031,0.0012364
463.431,0.00121431
463.831,0.00119281
464.231,0.00117187
464.631,0.00115147
465.031,0.00113161
465.431,0.00111225
465.831,0.00109339
466.231,0.001075
466.631,0.00105707
467.031,0.00103958
467.431,0.00102253
467.831,0.00100589
468.231,0.00098965
468.631,0.000973803
469.031,0.000958333
469.431,0.000943228
469.831,0.000928478
470.231,0.00091407
470.631,0.000899996
471.031,0.000886243
471.431,0.000872803
471.831,0.000859666
472.231,0.000846824
472.631,0.000834266
473.031,0.000821986
473.431,0.000809975
473.831,0.000798225
474.231,0.000786729
474.631,0.000775479
475.031,0.000764468
475.431,0.000753691
475.831,0.000743139
476.231,0.000732807
476.631,0.000722689
477.031,0.00071278
477.431,0.000703072
477.831,0.000693561
478.231,0.000684242
478.631,0.000675109
479.031,0.000666158
479.431,0.000657384
479.831,0.000648782
480.231,0.000640347
480.631,0.000632076
481.031,0.000623963
481.431,0.000616006
481.831,0.0006082
482.231,0.000600542
482.631,0.000593027
483.031,0.000585652
483.431,0.000578414
483.831,0.000571309
484.231,0.000564335
484.631,0.000557487
485.031,0.000550763
485.431,0.000544159
485.831,0.000537674
486.231,0.000531304
486.631,0.000525047
487.031,0.000518899
487.431,0.000512859
487.831,0.000506923
488.231,0.00050109
488.631,0.000495357
489.031,0.000489722
489.431,0.000484182
489.831,0.000478735
490.231,0.000473381
490.631,0.000468115
491.031,0.000462937
491.431,0.000457844
491.831,0.000452834
492.231,0.000447907
492.631,0.000443059
493.031,0.00043829
493.431,0.000433597
493.831,0.000428979
494.231,0.000424434
494.631,0.000419962
495.031,0.000415559
495.431,0.000411226
495.831,0.000406959
496.231,0.000402759
496.631,0.000398624
497.031,0.000394552
497.431,0.000390542
497.831,0.000386592
498.231,0.000382703
498.631,0.000378871
499.031,0.000375097
499.431,0.000371379
499.831,0.000367716
500.231,0.000364107
500.631,0.000360551
501.031,0.000357047
501.431,0.000353593
501.831,0.000350189
502.231,0.000346835
502.631,0.000343528
503.031,0.000340268
503.431,0.000337054
503.831,0.000333886
504.231,0.000330762
504.631,0.000327682
505.031,0.000324644
505.431,0.000321649
505.831,0.000318695
506.231,0.000315781
506.631,0.000312907
507.031,0.000310072
507.431,0.000307276
507.831,0.000304517
508.131,0.000302472