File: insb/senthilkumar_2005/473k/raman_peaks.csv
128.725, 0.201507
130.462, 0.302847
133.061, 0.471313
135.1, 0.730451
138.198, 1.11126
139.439, 1.27658
143.394, 1.3465
147.044, 1.44091
150.826, 1.50963
155.763, 1.58762
159.617, 1.65822
162.785, 1.73548
166.64, 1.82547
170.202, 1.90234
172.555, 1.98425
173.927, 2.21419
176.127, 2.2894
176.821, 2.39522
179.332, 2.55572
180.791, 2.63377
182.445, 2.84976
184.076, 3.00085
185.849, 3.1623
187.919, 3.26406
189.749, 3.379
193.328, 3.2733
196.331, 3.06827
198.124, 2.93688
198.845, 3.03538
199.833, 2.79567
201.727, 2.69964
203.556, 2.53028
206.725, 2.32788
208.25, 2.19338
210.169, 2.0913
211.888, 1.97878
213.755, 1.76724
215.912, 1.60424
217.103, 1.54478
218.651, 1.41201
220.981, 1.23188
224.969, 1.11071
229.752, 1.01803
233.256, 0.970312
236.911, 0.908402
241.264, 0.856779
244.631, 0.809573