File: inn/kurimoto_2004/as_grown/raman/curve_total_fit.dat
422.016,0.10231
422.516,0.10255
423.016,0.102835
423.516,0.103172
424.016,0.103569
424.516,0.104032
425.016,0.10457
425.516,0.105191
426.016,0.1059
426.516,0.106705
427.016,0.107611
427.516,0.108623
428.016,0.109743
428.516,0.110972
429.016,0.112308
429.516,0.113747
430.016,0.115283
430.516,0.116904
431.016,0.118598
431.516,0.120348
432.016,0.122136
432.516,0.123939
433.016,0.125733
433.516,0.127492
434.016,0.129189
434.516,0.130795
435.016,0.132284
435.516,0.133628
436.016,0.134804
436.516,0.135789
437.016,0.136564
437.516,0.137114
438.016,0.13743
438.516,0.137501
439.016,0.137287
439.516,0.136783
440.016,0.136005
440.516,0.134972
441.016,0.133712
441.516,0.132255
442.016,0.130638
442.516,0.128895
443.016,0.127067
443.516,0.125189
444.016,0.123299
444.516,0.121429
445.016,0.119609
445.516,0.117865
446.016,0.116217
446.516,0.114683
447.016,0.113274
447.516,0.111998
448.016,0.110857
448.516,0.109852
449.016,0.108979
449.516,0.108233
450.016,0.107605
450.516,0.107088
451.016,0.106672
451.516,0.106345
452.016,0.1061
452.516,0.105924
453.016,0.105811
453.516,0.105751
454.016,0.105736
454.516,0.105762
455.016,0.10582
455.516,0.105908
456.016,0.10602
456.516,0.106154
457.016,0.106307
457.516,0.106477
458.016,0.106663
458.516,0.106864
459.016,0.107079
459.516,0.107308
460.016,0.107551
460.516,0.107808
461.016,0.10808
461.516,0.108367
462.016,0.10867
462.516,0.108991
463.016,0.109329
463.516,0.109688
464.016,0.110067
464.516,0.110469
465.016,0.110895
465.516,0.111347
466.016,0.111828
466.516,0.11234
467.016,0.112885
467.516,0.113467
468.016,0.114088
468.516,0.114752
469.016,0.115464
469.516,0.116228
470.016,0.117049
470.516,0.117932
471.016,0.118884
471.516,0.119912
472.016,0.121024
472.516,0.12223
473.016,0.12354
473.516,0.124966
474.016,0.126521
474.516,0.128221
475.016,0.130084
475.516,0.132131
476.016,0.134385
476.516,0.136873
477.016,0.139629
477.516,0.142688
478.016,0.146095
478.516,0.1499
479.016,0.154163
479.516,0.158952
480.016,0.164349
480.516,0.170449
481.016,0.177362
481.516,0.185215
482.016,0.194154
482.516,0.204341
483.016,0.215954
483.516,0.229174
484.016,0.244175
484.516,0.26109
485.016,0.279967
485.516,0.300699
486.016,0.322928
486.516,0.345937
487.016,0.36856
487.516,0.389166
488.016,0.405807
488.516,0.416555
489.016,0.419984
489.516,0.415356
490.016,0.403155
490.516,0.385061
491.016,0.363218
491.516,0.339693
492.016,0.31614
492.516,0.293685
493.016,0.272976
493.516,0.254297
494.016,0.237691
494.516,0.223062
495.016,0.21024
495.516,0.199029
496.016,0.189233
496.516,0.180664
497.016,0.173157
497.516,0.166564
498.016,0.160758
498.516,0.15563
499.016,0.151085
499.516,0.147045
500.016,0.143443
500.516,0.14022
501.016,0.137328
501.516,0.134726
502.016,0.132376
502.516,0.13025
503.016,0.12832
503.516,0.126563
504.016,0.124961
504.516,0.123496
505.016,0.122153
505.516,0.120919
506.016,0.119784
506.516,0.118736
507.016,0.117768
507.516,0.116872
508.016,0.116041
508.516,0.115269
509.016,0.114551
509.516,0.113881
510.016,0.113256
510.516,0.112671
511.016,0.112124
511.516,0.111611
512.016,0.11113
512.516,0.110678
513.016,0.110252
513.516,0.109851
514.016,0.109473
514.516,0.109116
515.016,0.108779
515.516,0.10846
516.016,0.108157
516.516,0.107871
517.016,0.107599
517.516,0.107341
518.016,0.107096
518.516,0.106863
519.016,0.106641
519.516,0.10643
520.016,0.106228
520.516,0.106036
521.016,0.105852
521.516,0.105677
522.016,0.105509
522.516,0.105349
523.016,0.105196
523.516,0.105049
524.016,0.104908
524.516,0.104773
525.016,0.104643
525.516,0.104518
526.016,0.104399
526.516,0.104284
527.016,0.104174
527.516,0.104067
528.016,0.103965
528.516,0.103867
529.016,0.103772
529.516,0.10368
530.016,0.103592
530.516,0.103507
531.016,0.103425
531.516,0.103346
532.016,0.103269
532.516,0.103195
533.016,0.103124
533.516,0.103055
534.016,0.102988
534.516,0.102923
535.016,0.102861
535.516,0.1028
536.016,0.102741
536.516,0.102685
537.016,0.102629
537.516,0.102576
538.016,0.102524
538.516,0.102474
539.016,0.102425
539.516,0.102378
540.016,0.102332
540.516,0.102287
541.016,0.102243
541.516,0.102201
542.016,0.10216
542.516,0.10212
543.016,0.102081
543.516,0.102044
544.016,0.102007
544.516,0.101971
545.016,0.101936
545.516,0.101902
546.016,0.101869
546.516,0.101837
547.016,0.101806
547.516,0.101775
548.016,0.101746
548.516,0.101717
549.016,0.101688
549.516,0.101661
550.016,0.101634
550.516,0.101607
551.016,0.101582
551.516,0.101557
552.016,0.101532
552.516,0.101508
553.016,0.101485
553.516,0.101462
554.016,0.10144
554.516,0.101418
555.016,0.101397
555.516,0.101376
556.016,0.101355
556.516,0.101336
557.016,0.101316
557.516,0.101297
558.016,0.101278
558.516,0.10126
559.016,0.101242
559.516,0.101225
560.016,0.101208
560.516,0.101191
561.016,0.101174
561.516,0.101158
562.016,0.101143
562.516,0.101127
563.016,0.101112
563.516,0.101097
564.016,0.101083
564.516,0.101069
565.016,0.101055
565.516,0.101041
566.016,0.101027
566.516,0.101014
567.016,0.101001
567.516,0.100989
568.016,0.100976
568.516,0.100964
569.016,0.100952
569.516,0.10094
569.716,0.100936