File: inn/kurimoto_2004/as_grown/raman/curve_1_fit.dat
422.016,0.000872094
422.516,0.00108994
423.016,0.00135277
423.516,0.00166737
424.016,0.00204091
424.516,0.00248084
425.016,0.00299473
425.516,0.00359006
426.016,0.00427395
426.516,0.0050529
427.016,0.00593248
427.516,0.00691697
428.016,0.00800903
428.516,0.00920932
429.016,0.0105162
429.516,0.0119255
430.016,0.01343
430.516,0.0150196
431.016,0.0166812
431.516,0.0183984
432.016,0.0201519
432.516,0.0219198
433.016,0.0236778
433.516,0.0253997
434.016,0.0270584
434.516,0.0286259
435.016,0.0300745
435.516,0.0313779
436.016,0.0325112
436.516,0.0334523
437.016,0.0341824
437.516,0.0346867
438.016,0.0349549
438.516,0.0349772
439.016,0.0347125
439.516,0.0341571
440.016,0.0333253
440.516,0.0322376
441.016,0.0309205
441.516,0.0294054
442.016,0.027727
442.516,0.0259224
443.016,0.0240294
443.516,0.0220855
444.016,0.0201265
444.516,0.0181855
445.016,0.0162921
445.516,0.0144719
446.016,0.0127459
446.516,0.0111304
447.016,0.00963712
447.516,0.00827332
448.016,0.0070422
448.516,0.00594337
449.016,0.0049734
449.516,0.00412638
450.016,0.00339455
450.516,0.0027688
451.016,0.00223921
451.516,0.00179554
452.016,0.00142755
452.516,0.00112534
453.016,0.000879577
453.516,0.000681646
454.016,0.000523768
454.516,0.00039904
455.016,0.000301432
455.516,0.000225765
456.016,0.000167657
456.516,0.000123448
457.016,9.01238e-05
457.516,6.52368e-05
458.016,4.68211e-05
458.516,3.33186e-05
459.016,2.35086e-05
459.516,1.64461e-05
460.016,1.14077e-05
460.516,7.84559e-06
461.016,5.34996e-06
461.516,3.61719e-06
462.016,2.42487e-06
462.516,1.61176e-06
463.016,1.06221e-06
463.516,6.94089e-07
464.016,4.49693e-07
464.516,2.88877e-07
465.016,1.83995e-07
465.516,1.16197e-07
466.016,7.27579e-08
466.516,4.51712e-08
467.016,2.7806e-08
467.516,1.69712e-08
468.016,1.02702e-08
468.516,6.16234e-09
469.016,3.66612e-09
469.516,2.16254e-09
470.016,1.26479e-09
470.516,7.33443e-10
471.016,4.21707e-10
471.516,2.4041e-10
472.016,1.35891e-10
472.516,7.61593e-11
473.016,4.23206e-11
473.516,2.33173e-11
474.016,1.27379e-11
474.516,6.89947e-12
475.016,3.70535e-12
475.516,1.97305e-12
476.016,1.0417e-12
476.516,5.45312e-13
477.016,2.83037e-13
477.516,1.45659e-13
478.016,7.43234e-14
478.516,3.7602e-14
479.016,1.88622e-14
479.516,9.38144e-15
480.016,4.6264e-15
480.516,2.2621e-15
481.016,1.09668e-15
481.516,5.27157e-16
482.016,2.51245e-16
482.516,1.18727e-16
483.016,5.56289e-17
483.516,2.58432e-17
484.016,1.19038e-17
484.516,5.43657e-18
485.016,2.46183e-18
485.516,1.10532e-18
486.016,4.92055e-19
486.516,2.17188e-19
487.016,9.50502e-20
487.516,4.12446e-20
488.016,1.7745e-20
488.516,7.56976e-21
489.016,3.20172e-21
489.516,1.34271e-21
490.016,5.5831e-22
490.516,2.30179e-22
491.016,9.40916e-23
491.516,3.81358e-23
492.016,1.53254e-23
492.516,6.10639e-24
493.016,2.41243e-24
493.516,9.44974e-25
494.016,3.67013e-25
494.516,1.41332e-25
495.016,5.39627e-26
495.516,2.04288e-26
496.016,7.66813e-27
496.516,2.85385e-27
497.016,1.0531e-27
497.516,3.85304e-28
498.016,1.39776e-28
498.516,5.02758e-29
499.016,1.793e-29
499.516,6.34015e-30
500.016,2.22287e-30
500.516,7.72722e-31
501.016,2.66336e-31
501.516,9.10189e-32
502.016,3.08411e-32
502.516,1.03615e-32
503.016,3.45155e-33
503.516,1.13999e-33
504.016,3.73321e-34
504.516,1.21216e-34
505.016,3.90243e-35
505.516,1.24568e-35
506.016,3.9425e-36
506.516,1.23718e-36
507.016,3.84939e-37
507.516,1.18753e-37
508.016,3.63242e-38
508.516,1.10165e-38
509.016,3.31272e-39
509.516,9.87696e-40
510.016,2.91983e-40
510.516,8.55831e-41
511.016,2.48722e-41
511.516,7.16699e-42
512.016,2.04765e-42
512.516,5.80055e-43
513.016,1.62922e-43
513.516,4.53718e-44
514.016,1.25282e-44
514.516,3.42995e-45
515.016,9.31069e-46
515.516,2.50595e-46
516.016,6.68742e-47
516.516,1.76946e-47
517.016,4.64216e-48
517.516,1.20752e-48
518.016,3.11433e-49
518.516,7.96401e-50
519.016,2.01927e-50
519.516,5.07637e-51
520.016,1.26534e-51
520.516,3.12722e-52
521.016,7.66311e-53
521.516,1.86186e-53
522.016,4.48525e-54
522.516,1.07132e-54
523.016,2.53718e-55
523.516,5.9577e-56
524.016,1.38708e-56
524.516,3.20199e-57
525.016,7.32883e-58
525.516,1.6632e-58
526.016,3.74242e-59
526.516,8.3494e-60
527.016,1.84695e-60
527.516,4.05088e-61
528.016,8.80927e-62
528.516,1.89944e-62
529.016,4.06078e-63
529.516,8.60773e-64
530.016,1.8091e-64
530.516,3.76994e-65
531.016,7.78935e-66
531.516,1.59575e-66
532.016,3.24133e-67
532.516,6.52797e-68
533.016,1.30356e-68
533.516,2.58093e-69
534.016,5.06663e-70
534.516,9.86185e-71
535.016,1.90324e-71
535.516,3.64187e-72
536.016,6.90958e-73
536.516,1.2998e-73
537.016,2.42434e-74
537.516,4.48342e-75
538.016,8.22092e-76
538.516,1.49461e-76
539.016,2.69421e-77
539.516,4.81537e-78
540.016,8.53346e-79
540.516,1.4994e-79
541.016,2.61218e-80
541.516,4.51219e-81
542.016,7.72799e-82
542.516,1.31233e-82
543.016,2.2096e-83
543.516,3.68876e-84
544.016,6.10582e-85
544.516,1.00208e-85
545.016,1.63064e-86
545.516,2.63093e-87
546.016,4.20879e-88
546.516,6.67576e-89
547.016,1.04988e-89
547.516,1.6371e-90
548.016,2.53109e-91
548.516,3.88003e-92
549.016,5.89737e-93
549.516,8.88746e-94
550.016,1.32798e-94
550.516,1.96745e-95
551.016,2.8901e-96
551.516,4.20936e-97
552.016,6.07877e-98
552.516,8.70384e-99
553.016,1.23567e-99
553.516,1.73936e-100
554.016,2.42758e-101
554.516,3.35934e-102
555.016,4.60924e-103
555.516,6.27048e-104
556.016,8.45802e-105
556.516,1.13118e-105
557.016,1.5e-106
557.516,1.97219e-107
558.016,2.57099e-108
558.516,3.32313e-109
559.016,4.25884e-110
559.516,5.41167e-111
560.016,6.81816e-112
560.516,8.51724e-113
561.016,1.05494e-113
561.516,1.29554e-114
562.016,1.5775e-115
562.516,1.90452e-116
563.016,2.27981e-117
563.516,2.70586e-118
564.016,3.18427e-119
564.516,3.71544e-120
565.016,4.29839e-121
565.516,4.93058e-122
566.016,5.60772e-123
566.516,6.32368e-124
567.016,7.0705e-125
567.516,7.83838e-126
568.016,8.61585e-127
568.516,9.39001e-128
569.016,1.01468e-128
569.516,1.08715e-129
569.716,4.43851e-130