File: inn/kurimoto_2004/as_grown/raman/curve_2_fit.dat
422.016,0.00143835
422.516,0.00145997
423.016,0.00148209
423.516,0.0015047
424.016,0.00152784
424.516,0.00155152
425.016,0.00157575
425.516,0.00160054
426.016,0.00162593
426.516,0.00165193
427.016,0.00167856
427.516,0.00170583
428.016,0.00173377
428.516,0.0017624
429.016,0.00179175
429.516,0.00182183
430.016,0.00185267
430.516,0.00188431
431.016,0.00191676
431.516,0.00195005
432.016,0.00198422
432.516,0.00201929
433.016,0.0020553
433.516,0.00209227
434.016,0.00213025
434.516,0.00216928
435.016,0.00220938
435.516,0.0022506
436.016,0.00229298
436.516,0.00233657
437.016,0.00238141
437.516,0.00242755
438.016,0.00247504
438.516,0.00252394
439.016,0.00257429
439.516,0.00262616
440.016,0.00267962
440.516,0.00273471
441.016,0.00279152
441.516,0.00285011
442.016,0.00291056
442.516,0.00297294
443.016,0.00303735
443.516,0.00310386
444.016,0.00317258
444.516,0.0032436
445.016,0.00331702
445.516,0.00339295
446.016,0.00347151
446.516,0.00355282
447.016,0.00363701
447.516,0.00372421
448.016,0.00381458
448.516,0.00390826
449.016,0.00400542
449.516,0.00410624
450.016,0.00421089
450.516,0.00431957
451.016,0.0044325
451.516,0.00454989
452.016,0.00467199
452.516,0.00479904
453.016,0.00493131
453.516,0.00506911
454.016,0.00521272
454.516,0.00536249
455.016,0.00551878
455.516,0.00568195
456.016,0.00585242
456.516,0.00603063
457.016,0.00621705
457.516,0.00641218
458.016,0.00661659
458.516,0.00683085
459.016,0.00705561
459.516,0.00729156
460.016,0.00753945
460.516,0.00780009
461.016,0.00807436
461.516,0.00836323
462.016,0.00866772
462.516,0.00898899
463.016,0.00932827
463.516,0.00968693
464.016,0.0100664
464.516,0.0104684
465.016,0.0108947
465.516,0.0113472
466.016,0.0118281
466.516,0.0123399
467.016,0.0128851
467.516,0.0134667
468.016,0.0140879
468.516,0.0147525
469.016,0.0154643
469.516,0.016228
470.016,0.0170486
470.516,0.0179317
471.016,0.0188838
471.516,0.019912
472.016,0.0210245
472.516,0.0222304
473.016,0.0235402
473.516,0.0249659
474.016,0.026521
474.516,0.0282212
475.016,0.0300842
475.516,0.0321307
476.016,0.0343846
476.516,0.0368732
477.016,0.0396287
477.516,0.0426882
478.016,0.0460951
478.516,0.0499001
479.016,0.0541625
479.516,0.0589517
480.016,0.0643489
480.516,0.0704489
481.016,0.0773619
481.516,0.0852153
482.016,0.0941543
482.516,0.104341
483.016,0.115954
483.516,0.129174
484.016,0.144175
484.516,0.16109
485.016,0.179967
485.516,0.200699
486.016,0.222928
486.516,0.245937
487.016,0.26856
487.516,0.289166
488.016,0.305807
488.516,0.316555
489.016,0.319984
489.516,0.315356
490.016,0.303155
490.516,0.285061
491.016,0.263218
491.516,0.239693
492.016,0.21614
492.516,0.193685
493.016,0.172976
493.516,0.154297
494.016,0.137691
494.516,0.123062
495.016,0.11024
495.516,0.0990293
496.016,0.0892327
496.516,0.0806645
497.016,0.0731574
497.516,0.0665644
498.016,0.0607582
498.516,0.0556295
499.016,0.0510851
499.516,0.0470454
500.016,0.0434429
500.516,0.0402202
501.016,0.0373284
501.516,0.0347257
502.016,0.0323763
502.516,0.0302497
503.016,0.0283196
503.516,0.0265631
504.016,0.0249608
504.516,0.0234956
505.016,0.0221526
505.516,0.0209191
506.016,0.0197836
506.516,0.0187363
507.016,0.0177685
507.516,0.0168724
508.016,0.0160413
508.516,0.0152692
509.016,0.0145506
509.516,0.0138809
510.016,0.0132557
510.516,0.0126713
511.016,0.0121242
511.516,0.0116114
512.016,0.01113
512.516,0.0106776
513.016,0.010252
513.516,0.00985109
514.016,0.00947299
514.516,0.00911604
515.016,0.00877872
515.516,0.00845961
516.016,0.00815744
516.516,0.00787105
517.016,0.00759936
517.516,0.00734139
518.016,0.00709625
518.516,0.00686309
519.016,0.00664116
519.516,0.00642975
520.016,0.00622821
520.516,0.00603595
521.016,0.00585239
521.516,0.00567704
522.016,0.0055094
522.516,0.00534904
523.016,0.00519555
523.516,0.00504853
524.016,0.00490764
524.516,0.00477253
525.016,0.0046429
525.516,0.00451846
526.016,0.00439893
526.516,0.00428406
527.016,0.00417361
527.516,0.00406736
528.016,0.0039651
528.516,0.00386663
529.016,0.00377178
529.516,0.00368035
530.016,0.0035922
530.516,0.00350717
531.016,0.00342511
531.516,0.00334589
532.016,0.00326937
532.516,0.00319545
533.016,0.00312399
533.516,0.0030549
534.016,0.00298806
534.516,0.00292339
535.016,0.00286079
535.516,0.00280017
536.016,0.00274146
536.516,0.00268457
537.016,0.00262942
537.516,0.00257595
538.016,0.0025241
538.516,0.00247378
539.016,0.00242496
539.516,0.00237756
540.016,0.00233154
540.516,0.00228683
541.016,0.0022434
541.516,0.00220119
542.016,0.00216015
542.516,0.00212025
543.016,0.00208145
543.516,0.0020437
544.016,0.00200696
544.516,0.0019712
545.016,0.00193639
545.516,0.00190249
546.016,0.00186947
546.516,0.0018373
547.016,0.00180596
547.516,0.0017754
548.016,0.00174562
548.516,0.00171657
549.016,0.00168825
549.516,0.00166062
550.016,0.00163366
550.516,0.00160735
551.016,0.00158167
551.516,0.0015566
552.016,0.00153212
552.516,0.00150821
553.016,0.00148486
553.516,0.00146204
554.016,0.00143974
554.516,0.00141795
555.016,0.00139665
555.516,0.00137583
556.016,0.00135547
556.516,0.00133555
557.016,0.00131608
557.516,0.00129702
558.016,0.00127837
558.516,0.00126012
559.016,0.00124226
559.516,0.00122478
560.016,0.00120766
560.516,0.0011909
561.016,0.00117449
561.516,0.00115841
562.016,0.00114266
562.516,0.00112722
563.016,0.0011121
563.516,0.00109728
564.016,0.00108276
564.516,0.00106851
565.016,0.00105455
565.516,0.00104086
566.016,0.00102744
566.516,0.00101427
567.016,0.00100135
567.516,0.000988683
568.016,0.000976251
568.516,0.000964051
569.016,0.000952079
569.516,0.000940327
569.716,0.000935688