File: inn/kurimoto_2004/as_grown/raman/raman_peaks.csv
416.147, 0.099757
422.016, 0.100091
427.242, 0.110917
433.43, 0.124201
437.454, 0.142558
442.317, 0.129263
445.897, 0.116571
452.118, 0.106935
456.877, 0.1046
462.778, 0.103532
469.31, 0.11219
474.593, 0.118405
479.941, 0.137742
482.634, 0.171285
483.283, 0.224059
483.262, 0.196671
483.862, 0.297481
484.609, 0.252212
485.999, 0.363045
489.139, 0.409264
493.019, 0.332903
493.541, 0.28197
493.909, 0.23145
495.224, 0.186005
495.974, 0.148568
498.994, 0.119574
503.511, 0.104298
509.013, 0.101073
514.516, 0.0998346
520.492, 0.103545
526.337, 0.0984307
532.375, 0.0975954
538.011, 0.0968003
542.984, 0.0986793
549.185, 0.101303
554.925, 0.103285
561.027, 0.105413
566.406, 0.106681
569.799, 0.109004