File: inn/kurimoto_2004/500C/raman/curve_1_fit.dat
392.948,0.0102214
393.448,0.0106453
393.948,0.0110961
394.448,0.011576
394.948,0.0120876
395.448,0.0126337
395.948,0.0132175
396.448,0.0138426
396.948,0.0145128
397.448,0.0152326
397.948,0.0160071
398.448,0.0168418
398.948,0.0177431
399.448,0.0187182
399.948,0.0197755
400.448,0.0209242
400.948,0.0221753
401.448,0.023541
401.948,0.0250357
402.448,0.0266761
402.948,0.0284814
403.448,0.0304744
403.948,0.0326816
404.448,0.0351344
404.948,0.0378703
405.448,0.0409337
405.948,0.0443782
406.448,0.0482686
406.948,0.0526836
407.448,0.0577198
407.948,0.0634965
408.448,0.070162
408.948,0.0779025
409.448,0.0869536
409.948,0.0976161
410.448,0.110277
410.948,0.125441
411.448,0.143767
411.948,0.166126
412.448,0.193673
412.948,0.227937
413.448,0.270929
413.948,0.325221
414.448,0.393908
414.948,0.480194
415.448,0.586056
415.948,0.709145
416.448,0.837537
416.948,0.945353
417.448,0.998368
417.948,0.975169
418.448,0.885511
418.948,0.761545
419.448,0.634136
419.948,0.520623
420.448,0.426511
420.948,0.35107
421.448,0.291353
421.948,0.244135
422.448,0.206615
422.948,0.176562
423.448,0.152263
423.948,0.132426
424.448,0.116073
424.948,0.102469
425.448,0.0910507
425.948,0.0813887
426.448,0.07315
426.948,0.0660747
427.448,0.0599585
427.948,0.0546387
428.448,0.0499854
428.948,0.0458933
429.448,0.042277
429.948,0.0390666
430.448,0.0362041
430.948,0.0336417
431.448,0.0313393
431.948,0.0292632
432.448,0.0273849
432.948,0.0256803
433.448,0.0241289
433.948,0.0227128
434.448,0.021417
434.948,0.0202283
435.448,0.0191353
435.948,0.018128
436.448,0.0171978
436.948,0.0163369
437.448,0.0155389
437.948,0.0147976
438.448,0.0141079
438.948,0.0134651
439.448,0.012865
439.948,0.0123041
440.448,0.0117789
440.948,0.0112865
441.448,0.0108242
441.948,0.0103897
442.448,0.00998073
442.948,0.00959537
443.448,0.00923184
443.948,0.00888853
444.448,0.00856396
444.948,0.00825681
445.448,0.00796584
445.948,0.00768995
446.448,0.00742811
446.948,0.00717939
447.448,0.00694293
447.948,0.00671794
448.448,0.00650368
448.948,0.0062995
449.448,0.00610476
449.948,0.00591889
450.448,0.00574137
450.948,0.00557171
451.448,0.00540944
451.948,0.00525415
452.448,0.00510544
452.948,0.00496294
453.448,0.00482632
453.948,0.00469525
454.448,0.00456945
454.948,0.00444862
455.448,0.00433252
455.948,0.0042209
456.448,0.00411353
456.948,0.0040102
457.448,0.00391071
457.948,0.00381488
458.448,0.00372252
458.948,0.00363346
459.448,0.00354757
459.948,0.00346468
460.448,0.00338466
460.948,0.00330737
461.448,0.0032327
461.948,0.00316053
462.448,0.00309075
462.948,0.00302325
463.448,0.00295793
463.948,0.00289471
464.448,0.00283349
464.948,0.00277419
465.448,0.00271673
465.948,0.00266104
466.448,0.00260704
466.948,0.00255467
467.448,0.00250385
467.948,0.00245454
468.448,0.00240667
468.948,0.00236018
469.448,0.00231503
469.948,0.00227116
470.448,0.00222852
470.948,0.00218708
471.448,0.00214677
471.948,0.00210758
472.448,0.00206944
472.948,0.00203233
473.448,0.00199621
473.948,0.00196104
474.448,0.00192679
474.948,0.00189343
475.448,0.00186093
475.948,0.00182926
476.448,0.00179839
476.948,0.00176829
477.448,0.00173895
477.948,0.00171032
478.448,0.0016824
478.948,0.00165516
479.448,0.00162857
479.948,0.00160261
480.448,0.00157728
480.948,0.00155254
481.448,0.00152837
481.948,0.00150477
482.448,0.0014817
482.948,0.00145917
483.448,0.00143714
483.948,0.00141561
484.448,0.00139455
484.948,0.00137397
485.448,0.00135384
485.948,0.00133414
486.448,0.00131487
486.948,0.00129602
487.448,0.00127757
487.948,0.00125951
488.448,0.00124183
488.948,0.00122452
489.448,0.00120756
489.948,0.00119096
490.448,0.0011747
490.948,0.00115877
491.448,0.00114316
491.948,0.00112786
492.448,0.00111287
492.948,0.00109818
493.448,0.00108377
493.948,0.00106965
494.448,0.0010558
494.948,0.00104221
495.448,0.00102889
495.948,0.00101582
496.448,0.001003
496.948,0.000990422
497.448,0.000978077
497.948,0.000965961
498.448,0.000954069
498.948,0.000942395
499.448,0.000930934
499.948,0.000919681
500.448,0.000908631
500.948,0.000897778
501.448,0.000887119
501.948,0.000876648
502.448,0.000866362
502.948,0.000856255
503.448,0.000846324
503.948,0.000836565
504.448,0.000826974
504.948,0.000817547
505.448,0.00080828
505.948,0.000799169
506.448,0.000790212
506.948,0.000781404
507.448,0.000772743
507.948,0.000764225
508.448,0.000755847
508.948,0.000747606
509.448,0.000739499
509.948,0.000731524
510.448,0.000723676
510.948,0.000715954
511.448,0.000708355
511.948,0.000700876
512.448,0.000693515
512.948,0.00068627
513.448,0.000679137
513.948,0.000672115
514.448,0.000665201
514.948,0.000658394
515.448,0.00065169
515.948,0.000645088
516.448,0.000638586
516.948,0.000632182
517.048,0.000630912