File: inn/kurimoto_2004/500C/raman/curve_total_fit.dat
392.948,0.0633494
393.448,0.0638494
393.948,0.0643775
394.448,0.064936
394.948,0.0655276
395.448,0.0661551
395.948,0.0668216
396.448,0.0675308
396.948,0.0682865
397.448,0.0690931
397.948,0.0699558
398.448,0.0708801
398.948,0.0718724
399.448,0.0729399
399.948,0.0740909
400.448,0.0753349
400.948,0.0766824
401.448,0.0781461
401.948,0.0797402
402.448,0.0814813
402.948,0.0833888
403.448,0.0854853
403.948,0.0877974
404.448,0.0903565
404.948,0.0932
405.448,0.0963725
405.948,0.0999274
406.448,0.103929
406.948,0.108458
407.448,0.113608
407.948,0.119501
408.448,0.126283
408.948,0.134142
409.448,0.143313
409.948,0.154097
410.448,0.16688
410.948,0.182167
411.448,0.200618
411.948,0.223103
412.448,0.250777
412.948,0.285169
413.448,0.328291
413.948,0.382713
414.448,0.451532
414.948,0.537951
415.448,0.643947
415.948,0.767171
416.448,0.895699
416.948,1.00365
417.448,1.05681
417.948,1.03375
418.448,0.944228
418.948,0.820403
419.448,0.693135
419.948,0.579765
420.448,0.485796
420.948,0.410499
421.448,0.350927
421.948,0.303855
422.448,0.266481
422.948,0.236575
423.448,0.212424
423.948,0.192734
424.448,0.176531
424.948,0.163075
425.448,0.151807
425.948,0.142295
426.448,0.134206
426.948,0.127282
427.448,0.121316
427.948,0.116148
428.448,0.111646
428.948,0.107705
429.448,0.10424
429.948,0.101181
430.448,0.0984705
430.948,0.0960597
431.448,0.0939088
431.948,0.091984
432.448,0.0902569
432.948,0.0887033
433.448,0.0873025
433.948,0.0860367
434.448,0.0848908
434.948,0.0838516
435.448,0.0829075
435.948,0.0820487
436.448,0.0812662
436.948,0.0805526
437.448,0.079901
437.948,0.0793054
438.448,0.0787606
438.948,0.0782618
439.448,0.0778049
439.948,0.0773861
440.448,0.077002
440.948,0.0766497
441.448,0.0763263
441.948,0.0760295
442.448,0.075757
442.948,0.0755068
443.448,0.0752771
443.948,0.0750662
444.448,0.0748726
444.948,0.074695
445.448,0.0745319
445.948,0.0743823
446.448,0.0742451
446.948,0.0741193
447.448,0.0740039
447.948,0.0738983
448.448,0.0738015
448.948,0.0737128
449.448,0.0736316
449.948,0.0735573
450.448,0.0734893
450.948,0.073427
451.448,0.07337
451.948,0.0733177
452.448,0.0732697
452.948,0.0732257
453.448,0.0731852
453.948,0.0731479
454.448,0.0731135
454.948,0.0730816
455.448,0.0730518
455.948,0.0730241
456.448,0.072998
456.948,0.0729733
457.448,0.0729498
457.948,0.0729273
458.448,0.0729056
458.948,0.0728844
459.448,0.0728636
459.948,0.072843
460.448,0.0728224
460.948,0.0728017
461.448,0.0727808
461.948,0.0727594
462.448,0.0727374
462.948,0.0727148
463.448,0.0726914
463.948,0.0726671
464.448,0.0726418
464.948,0.0726153
465.448,0.0725876
465.948,0.0725587
466.448,0.0725283
466.948,0.0724965
467.448,0.0724632
467.948,0.0724282
468.448,0.0723916
468.948,0.0723533
469.448,0.0723132
469.948,0.0722712
470.448,0.0722274
470.948,0.0721817
471.448,0.072134
471.948,0.0720844
472.448,0.0720329
472.948,0.0719795
473.448,0.0719242
473.948,0.0718671
474.448,0.0718084
474.948,0.0717483
475.448,0.071687
475.948,0.0716251
476.448,0.071563
476.948,0.0715015
477.448,0.0714416
477.948,0.0713845
478.448,0.0713319
478.948,0.0712858
479.448,0.0712487
479.948,0.0712235
480.448,0.071214
480.948,0.0712242
481.448,0.071259
481.948,0.0713238
482.448,0.0714247
482.948,0.071568
483.448,0.0717605
483.948,0.0720087
484.448,0.0723193
484.948,0.072698
485.448,0.0731498
485.948,0.0736781
486.448,0.0742845
486.948,0.0749682
487.448,0.0757258
487.948,0.0765509
488.448,0.0774336
488.948,0.0783611
489.448,0.079317
489.948,0.0802822
490.448,0.081235
490.948,0.0821519
491.448,0.0830086
491.948,0.0837802
492.448,0.0844433
492.948,0.0849759
493.448,0.0853593
493.948,0.0855785
494.448,0.085623
494.948,0.0854873
495.448,0.0851714
495.948,0.0846804
496.448,0.0840246
496.948,0.0832189
497.448,0.0822819
497.948,0.0812354
498.448,0.0801031
498.948,0.0789096
499.448,0.0776795
499.948,0.0764365
500.448,0.0752025
500.948,0.0739969
501.448,0.0728361
501.948,0.0717336
502.448,0.0706993
502.948,0.0697399
503.448,0.0688591
503.948,0.068058
504.448,0.0673351
504.948,0.0666872
505.448,0.0661095
505.948,0.0655963
506.448,0.0651412
506.948,0.0647375
507.448,0.0643788
507.948,0.0640584
508.448,0.0637707
508.948,0.06351
509.448,0.0632717
509.948,0.0630514
510.448,0.0628458
510.948,0.0626516
511.448,0.0624666
511.948,0.0622886
512.448,0.0621161
512.948,0.0619478
513.448,0.0617827
513.948,0.0616203
514.448,0.0614598
514.948,0.0613009
515.448,0.0611433
515.948,0.0609869
516.448,0.0608314
516.948,0.0606768
517.048,0.060646