File: inn/kurimoto_2004/500C/raman/curve_2_fit.dat
392.948,2.00804e-92
393.448,1.5294e-91
393.948,1.15327e-90
394.448,8.60982e-90
394.948,6.36378e-89
395.448,4.65687e-88
395.948,3.37388e-87
396.448,2.42003e-86
396.948,1.71859e-85
397.448,1.20831e-84
397.948,8.41088e-84
398.448,5.79645e-83
398.948,3.95494e-82
399.448,2.67162e-81
399.948,1.78676e-80
400.448,1.18308e-79
400.948,7.75571e-79
401.448,5.03367e-78
401.948,3.23448e-77
402.448,2.0577e-76
402.948,1.29603e-75
403.448,8.08179e-75
403.948,4.98949e-74
404.448,3.04973e-73
404.948,1.84554e-72
405.448,1.10572e-71
405.948,6.55873e-71
406.448,3.85171e-70
406.948,2.23946e-69
407.448,1.28912e-68
407.948,7.34677e-68
408.448,4.14532e-67
408.948,2.31567e-66
409.448,1.28072e-65
409.948,7.01272e-65
410.448,3.80169e-64
410.948,2.04044e-63
411.448,1.08425e-62
411.948,5.70412e-62
412.448,2.97103e-61
412.948,1.53208e-60
413.448,7.82195e-60
413.948,3.95371e-59
414.448,1.97857e-58
414.948,9.8029e-58
415.448,4.80856e-57
415.948,2.33525e-56
416.448,1.12281e-55
416.948,5.34489e-55
417.448,2.519e-54
417.948,1.17537e-53
418.448,5.42971e-53
418.948,2.48334e-52
419.448,1.12449e-51
419.948,5.04113e-51
420.448,2.23748e-50
420.948,9.83212e-50
421.448,4.27753e-49
421.948,1.84245e-48
422.448,7.85696e-48
422.948,3.31719e-47
423.448,1.38658e-46
423.948,5.73819e-46
424.448,2.35105e-45
424.948,9.5369e-45
425.448,3.83009e-44
425.948,1.52289e-43
426.448,5.99492e-43
426.948,2.33645e-42
427.448,9.01542e-42
427.948,3.44408e-41
428.448,1.30262e-40
428.948,4.87774e-40
429.448,1.80832e-39
429.948,6.6373e-39
430.448,2.41193e-38
430.948,8.67747e-38
431.448,3.09086e-37
431.948,1.08999e-36
432.448,3.8056e-36
432.948,1.31547e-35
433.448,4.5019e-35
433.948,1.52534e-34
434.448,5.11677e-34
434.948,1.69935e-33
435.448,5.58759e-33
435.948,1.81897e-32
436.448,5.86248e-32
436.948,1.87066e-31
437.448,5.90971e-31
437.948,1.84839e-30
438.448,5.72374e-30
438.948,1.75478e-29
439.448,5.32625e-29
439.948,1.60058e-28
440.448,4.76202e-28
440.948,1.40269e-27
441.448,4.09062e-27
441.948,1.18106e-26
442.448,3.3761e-26
442.948,9.55462e-26
443.448,2.67713e-25
443.948,7.42646e-25
444.448,2.03963e-24
444.948,5.54598e-24
445.448,1.49301e-23
445.948,3.97927e-23
446.448,1.05003e-22
446.948,2.74319e-22
447.448,7.09527e-22
447.948,1.81693e-21
448.448,4.60643e-21
448.948,1.15624e-20
449.448,2.87335e-20
449.948,7.06945e-20
450.448,1.72203e-19
450.948,4.1529e-19
451.448,9.91562e-19
451.948,2.34393e-18
452.448,5.48565e-18
452.948,1.27107e-17
453.448,2.91585e-17
453.948,6.62245e-17
454.448,1.48912e-16
454.948,3.31511e-16
455.448,7.30672e-16
455.948,1.59443e-15
456.448,3.44464e-15
456.948,7.36784e-15
457.448,1.56025e-14
457.948,3.27117e-14
458.448,6.79002e-14
458.948,1.39539e-13
459.448,2.83907e-13
459.948,5.71894e-13
460.448,1.14054e-12
460.948,2.25197e-12
461.448,4.40223e-12
461.948,8.52001e-12
462.448,1.63254e-11
462.948,3.09702e-11
463.448,5.81678e-11
463.948,1.08163e-10
464.448,1.99127e-10
464.948,3.62943e-10
465.448,6.54945e-10
465.948,1.17011e-09
466.448,2.0697e-09
466.948,3.62448e-09
467.448,6.28405e-09
467.948,1.07868e-08
468.448,1.83316e-08
468.948,3.08436e-08
469.448,5.13792e-08
469.948,8.47359e-08
470.448,1.38358e-07
470.948,2.23665e-07
471.448,3.57971e-07
471.948,5.67226e-07
472.448,8.89859e-07
472.948,1.38211e-06
473.448,2.12531e-06
473.948,3.23563e-06
474.448,4.87698e-06
474.948,7.27782e-06
475.448,1.07525e-05
475.948,1.5728e-05
476.448,2.27769e-05
476.948,3.26567e-05
477.448,4.63562e-05
477.948,6.51479e-05
478.448,9.06463e-05
478.948,0.00012487
479.448,0.000170302
479.948,0.000229954
480.448,0.000307411
480.948,0.000406868
481.448,0.000533146
481.948,0.000691663
482.448,0.000888384
482.948,0.0011297
483.448,0.00142228
483.948,0.00177281
484.448,0.00218774
484.948,0.00267292
485.448,0.00323322
485.948,0.00387204
486.448,0.00459095
486.948,0.00538918
487.448,0.00626324
487.948,0.00720663
488.448,0.00820962
488.948,0.00925914
489.448,0.0103389
489.948,0.0114298
490.448,0.01251
490.948,0.013556
491.448,0.0145434
491.948,0.0154474
492.448,0.0162444
492.948,0.0169125
493.448,0.0174328
493.948,0.0177904
494.448,0.0179747
494.948,0.0179802
495.448,0.0178067
495.948,0.0174594
496.448,0.0169486
496.948,0.016289
497.448,0.0154993
497.948,0.0146011
498.448,0.0136181
498.948,0.012575
499.448,0.0114962
499.948,0.0104053
500.448,0.00932429
500.948,0.00827242
501.448,0.00726619
501.948,0.00631885
502.448,0.00544034
502.948,0.00463737
503.448,0.00391358
503.948,0.00326989
504.448,0.00270489
504.948,0.00221525
505.448,0.0017962
505.948,0.00144192
506.448,0.001146
506.948,0.000901753
507.448,0.0007025
507.948,0.000541829
508.448,0.000413747
508.948,0.000312799
509.448,0.000234127
509.948,0.000173499
510.448,0.000127291
510.948,9.24603e-05
511.448,6.64922e-05
511.948,4.73416e-05
512.448,3.33712e-05
512.948,2.32894e-05
513.448,1.60917e-05
513.948,1.10078e-05
514.448,7.45521e-06
514.948,4.9989e-06
515.448,3.31853e-06
515.948,2.1811e-06
516.448,1.41926e-06
516.948,9.14331e-07
517.048,8.36355e-07