File: inn/kurimoto_2004/500C/raman/raman_peaks.csv
384.415, 0.083658
392.948, 0.081233
401.541, 0.0817007
406.761, 0.102389
411.408, 0.140468
411.703, 0.174447
413.541, 0.234608
416.731, 0.995653
422.296, 0.226525
422.945, 0.187241
424.508, 0.154065
425.985, 0.122197
433.082, 0.126245
437.649, 0.0978066
447.05, 0.101789
455.337, 0.0815632
462.116, 0.0750717
471.486, 0.0695981
479.832, 0.0639192
487.662, 0.0691277
495.514, 0.0806937
502.757, 0.0642875
509.211, 0.0490756
517.134, 0.0466403