File: ingan/davydov_2003/in36/raman_peaks.csv
599.807, 2.84214
606.657, 2.86094
613.72, 2.87647
620.784, 2.87263
627.848, 2.90829
634.912, 2.92979
641.975, 2.98819
649.039, 3.04659
655.461, 3.09242
661.882, 3.15888
669.214, 3.23437
675.426, 3.30995
681.504, 3.40679
686.235, 3.52415
690.458, 3.62943
695.917, 3.71846
702.98, 3.69859
708.439, 3.57746
711.328, 3.46754
713.622, 3.36766
715.824, 3.27022
718.499, 3.17806
721.603, 3.09535
723.744, 3.00468
727.704, 2.92459
734.446, 2.8592
741.51, 2.811
748.574, 2.80678
755.637, 2.80666
762.701, 2.80579
769.765, 2.7889
776.186, 2.79882