File: ingan/robins_1999/in50/raman/curve_1_fit.dat
600.627,0.0650594
601.127,0.0678189
601.627,0.0706673
602.127,0.073606
602.627,0.0766363
603.127,0.0797596
603.627,0.0829771
604.127,0.0862899
604.627,0.0896993
605.127,0.0932062
605.627,0.0968116
606.127,0.100516
606.627,0.104321
607.127,0.108227
607.627,0.112235
608.127,0.116344
608.627,0.120556
609.127,0.12487
609.627,0.129287
610.127,0.133808
610.627,0.138431
611.127,0.143156
611.627,0.147984
612.127,0.152914
612.627,0.157945
613.127,0.163077
613.627,0.168308
614.127,0.173638
614.627,0.179065
615.127,0.184588
615.627,0.190205
616.127,0.195916
616.627,0.201718
617.127,0.207608
617.627,0.213586
618.127,0.219647
618.627,0.225791
619.127,0.232015
619.627,0.238314
620.127,0.244688
620.627,0.251131
621.127,0.257642
621.627,0.264216
622.127,0.27085
622.627,0.277539
623.127,0.284281
623.627,0.29107
624.127,0.297902
624.627,0.304774
625.127,0.311679
625.627,0.318614
626.127,0.325574
626.627,0.332553
627.127,0.339546
627.627,0.346548
628.127,0.353554
628.627,0.360557
629.127,0.367552
629.627,0.374534
630.127,0.381497
630.627,0.388434
631.127,0.395339
631.627,0.402207
632.127,0.409031
632.627,0.415805
633.127,0.422523
633.627,0.429178
634.127,0.435764
634.627,0.442275
635.127,0.448704
635.627,0.455045
636.127,0.461292
636.627,0.467439
637.127,0.473478
637.627,0.479405
638.127,0.485212
638.627,0.490893
639.127,0.496444
639.627,0.501857
640.127,0.507126
640.627,0.512247
641.127,0.517213
641.627,0.52202
642.127,0.526661
642.627,0.531131
643.127,0.535426
643.627,0.53954
644.127,0.54347
644.627,0.54721
645.127,0.550756
645.627,0.554104
646.127,0.55725
646.627,0.56019
647.127,0.562922
647.627,0.565442
648.127,0.567746
648.627,0.569833
649.127,0.571699
649.627,0.573343
650.127,0.574762
650.627,0.575956
651.127,0.576921
651.627,0.577658
652.127,0.578166
652.627,0.578443
653.127,0.57849
653.627,0.578306
654.127,0.577892
654.627,0.577248
655.127,0.576374
655.627,0.575273
656.127,0.573945
656.627,0.572392
657.127,0.570615
657.627,0.568618
658.127,0.566401
658.627,0.563968
659.127,0.561322
659.627,0.558465
660.127,0.555402
660.627,0.552135
661.127,0.548669
661.627,0.545007
662.127,0.541154
662.627,0.537114
663.127,0.532892
663.627,0.528492
664.127,0.523919
664.627,0.519179
665.127,0.514277
665.627,0.509218
666.127,0.504008
666.627,0.498653
667.127,0.493157
667.627,0.487528
668.127,0.481771
668.627,0.475892
669.127,0.469898
669.627,0.463794
670.127,0.457587
670.627,0.451283
671.127,0.444889
671.627,0.43841
672.127,0.431853
672.627,0.425226
673.127,0.418532
673.627,0.41178
674.127,0.404976
674.627,0.398125
675.127,0.391234
675.627,0.384309
676.127,0.377356
676.627,0.370382
677.127,0.363391
677.627,0.35639
678.127,0.349385
678.627,0.342381
679.127,0.335383
679.627,0.328398
680.127,0.32143
680.627,0.314485
681.127,0.307566
681.627,0.300681
682.127,0.293832
682.627,0.287024
683.127,0.280263
683.627,0.273552
684.127,0.266895
684.627,0.260297
685.127,0.25376
685.627,0.247289
686.127,0.240887
686.627,0.234557
687.127,0.228302
687.627,0.222126
688.127,0.21603
688.627,0.210018
689.127,0.204092
689.627,0.198255
690.127,0.192507
690.627,0.186851
691.127,0.18129
691.627,0.175824
692.127,0.170454
692.627,0.165183
693.127,0.160011
693.627,0.154939
694.127,0.149968
694.627,0.145099
695.127,0.140332
695.627,0.135667
696.127,0.131105
696.627,0.126647
697.127,0.12229
697.627,0.118037
698.127,0.113886
698.627,0.109838
699.127,0.105891
699.627,0.102045
700.127,0.0982999
700.627,0.0946543
701.127,0.0911076
701.627,0.0876589
702.127,0.0843071
702.627,0.0810511
703.127,0.0778898
703.627,0.074822
704.127,0.0718464
704.627,0.0689616
705.127,0.0661662
705.627,0.0634589
706.127,0.0608381
706.627,0.0583023
707.127,0.0558499
707.627,0.0534793
708.127,0.0511889
708.627,0.0489771
709.127,0.0468422
709.627,0.0447825
710.127,0.0427963
710.627,0.0408819
711.127,0.0390376
711.627,0.0372616
712.127,0.0355522
712.627,0.0339078
713.127,0.0323265
713.627,0.0308066
714.127,0.0293466
714.627,0.0279445
715.127,0.0265989
715.627,0.025308
716.127,0.0240701
716.627,0.0228836
717.127,0.021747
717.627,0.0206585
718.127,0.0196168
718.627,0.0186201
719.127,0.017667
719.627,0.0167561
720.127,0.0158857
720.627,0.0150546
721.127,0.0142613
721.627,0.0135044
722.127,0.0127825
722.627,0.0120945
723.127,0.0114389
723.627,0.0108145
724.127,0.0102201
724.627,0.00965458
725.127,0.0091167
725.627,0.00860534
726.127,0.00811944
726.627,0.00765791
727.127,0.00721974
727.627,0.00680393
728.127,0.00640952
728.627,0.00603556
729.127,0.00568115
729.627,0.00534542
730.127,0.00502753
730.627,0.00472666
731.127,0.00444202
731.627,0.00417286
732.127,0.00391844
732.627,0.00367807
733.127,0.00345107
733.627,0.00323679
734.127,0.00303461
734.627,0.00284392
735.127,0.00266415
735.627,0.00249475
736.127,0.00233519
736.627,0.00218496
737.127,0.00204358
737.627,0.00191059
738.127,0.00178554
738.627,0.00166801
739.127,0.0015576
739.627,0.00145391
740.127,0.00135659
740.627,0.00126528
741.127,0.00117964
741.627,0.00109936
742.127,0.00102414
742.627,0.000953677
743.127,0.000887713
743.627,0.000825982
744.127,0.000768238
744.627,0.000714245
745.127,0.000663783
745.627,0.00061664
746.127,0.000572616
746.627,0.000531524
747.027,0.00050064