File: ingan/robins_1999/in50/raman/curve_total_fit.dat
600.627,-2.9474
601.127,-2.94464
601.627,-2.94179
602.127,-2.93885
602.627,-2.93582
603.127,-2.93269
603.627,-2.92947
604.127,-2.92616
604.627,-2.92275
605.127,-2.91924
605.627,-2.91563
606.127,-2.91193
606.627,-2.90812
607.127,-2.90421
607.627,-2.9002
608.127,-2.89609
608.627,-2.89188
609.127,-2.88756
609.627,-2.88313
610.127,-2.87861
610.627,-2.87398
611.127,-2.86925
611.627,-2.86441
612.127,-2.85947
612.627,-2.85443
613.127,-2.84929
613.627,-2.84405
614.127,-2.83871
614.627,-2.83326
615.127,-2.82772
615.627,-2.82208
616.127,-2.81635
616.627,-2.81053
617.127,-2.80461
617.627,-2.7986
618.127,-2.7925
618.627,-2.78632
619.127,-2.78005
619.627,-2.77371
620.127,-2.76728
620.627,-2.76077
621.127,-2.7542
621.627,-2.74755
622.127,-2.74083
622.627,-2.73405
623.127,-2.72721
623.627,-2.72031
624.127,-2.71335
624.627,-2.70634
625.127,-2.69928
625.627,-2.69218
626.127,-2.68503
626.627,-2.67785
627.127,-2.67063
627.627,-2.66338
628.127,-2.6561
628.627,-2.6488
629.127,-2.64148
629.627,-2.63414
630.127,-2.62678
630.627,-2.61941
631.127,-2.61204
631.627,-2.60466
632.127,-2.59728
632.627,-2.58989
633.127,-2.58251
633.627,-2.57514
634.127,-2.56777
634.627,-2.56041
635.127,-2.55306
635.627,-2.54572
636.127,-2.53839
636.627,-2.53108
637.127,-2.52378
637.627,-2.5165
638.127,-2.50922
638.627,-2.50196
639.127,-2.49471
639.627,-2.48748
640.127,-2.48025
640.627,-2.47303
641.127,-2.46581
641.627,-2.45859
642.127,-2.45137
642.627,-2.44414
643.127,-2.43691
643.627,-2.42966
644.127,-2.42239
644.627,-2.41509
645.127,-2.40777
645.627,-2.40041
646.127,-2.393
646.627,-2.38555
647.127,-2.37804
647.627,-2.37046
648.127,-2.36282
648.627,-2.35509
649.127,-2.34728
649.627,-2.33938
650.127,-2.33137
650.627,-2.32325
651.127,-2.31501
651.627,-2.30665
652.127,-2.29815
652.627,-2.2895
653.127,-2.28071
653.627,-2.27176
654.127,-2.26265
654.627,-2.25336
655.127,-2.24389
655.627,-2.23425
656.127,-2.22441
656.627,-2.21438
657.127,-2.20415
657.627,-2.19373
658.127,-2.1831
658.627,-2.17227
659.127,-2.16123
659.627,-2.14999
660.127,-2.13855
660.627,-2.12691
661.127,-2.11507
661.627,-2.10305
662.127,-2.09084
662.627,-2.07845
663.127,-2.06589
663.627,-2.05318
664.127,-2.04032
664.627,-2.02733
665.127,-2.01422
665.627,-2.00101
666.127,-1.98771
666.627,-1.97434
667.127,-1.96092
667.627,-1.94747
668.127,-1.93402
668.627,-1.92059
669.127,-1.9072
669.627,-1.89387
670.127,-1.88064
670.627,-1.86754
671.127,-1.85458
671.627,-1.84181
672.127,-1.82924
672.627,-1.81692
673.127,-1.80486
673.627,-1.79312
674.127,-1.7817
674.627,-1.77066
675.127,-1.76002
675.627,-1.7498
676.127,-1.74006
676.627,-1.7308
677.127,-1.72208
677.627,-1.71391
678.127,-1.70633
678.627,-1.69936
679.127,-1.69304
679.627,-1.68739
680.127,-1.68244
680.627,-1.6782
681.127,-1.67471
681.627,-1.67199
682.127,-1.67005
682.627,-1.6689
683.127,-1.66858
683.627,-1.66909
684.127,-1.67044
684.627,-1.67264
685.127,-1.67571
685.627,-1.67964
686.127,-1.68444
686.627,-1.69011
687.127,-1.69664
687.627,-1.70405
688.127,-1.71231
688.627,-1.72142
689.127,-1.73137
689.627,-1.74215
690.127,-1.75375
690.627,-1.76614
691.127,-1.7793
691.627,-1.79323
692.127,-1.80788
692.627,-1.82325
693.127,-1.83929
693.627,-1.85599
694.127,-1.87332
694.627,-1.89124
695.127,-1.90972
695.627,-1.92873
696.127,-1.94823
696.627,-1.96819
697.127,-1.98857
697.627,-2.00934
698.127,-2.03046
698.627,-2.05189
699.127,-2.07359
699.627,-2.09553
700.127,-2.11766
700.627,-2.13996
701.127,-2.16238
701.627,-2.18489
702.127,-2.20745
702.627,-2.23002
703.127,-2.25257
703.627,-2.27507
704.127,-2.29748
704.627,-2.31977
705.127,-2.34191
705.627,-2.36387
706.127,-2.38562
706.627,-2.40714
707.127,-2.4284
707.627,-2.44937
708.127,-2.47003
708.627,-2.49036
709.127,-2.51034
709.627,-2.52995
710.127,-2.54918
710.627,-2.56801
711.127,-2.58642
711.627,-2.60441
712.127,-2.62196
712.627,-2.63906
713.127,-2.65571
713.627,-2.6719
714.127,-2.68762
714.627,-2.70287
715.127,-2.71765
715.627,-2.73195
716.127,-2.74578
716.627,-2.75914
717.127,-2.77202
717.627,-2.78444
718.127,-2.7964
718.627,-2.8079
719.127,-2.81895
719.627,-2.82955
720.127,-2.83971
720.627,-2.84944
721.127,-2.85875
721.627,-2.86765
722.127,-2.87614
722.627,-2.88424
723.127,-2.89196
723.627,-2.89931
724.127,-2.90629
724.627,-2.91293
725.127,-2.91923
725.627,-2.9252
726.127,-2.93085
726.627,-2.9362
727.127,-2.94126
727.627,-2.94603
728.127,-2.95054
728.627,-2.95478
729.127,-2.95878
729.627,-2.96254
730.127,-2.96608
730.627,-2.9694
731.127,-2.97251
731.627,-2.97543
732.127,-2.97816
732.627,-2.98071
733.127,-2.9831
733.627,-2.98533
734.127,-2.98741
734.627,-2.98935
735.127,-2.99115
735.627,-2.99283
736.127,-2.99439
736.627,-2.99584
737.127,-2.99719
737.627,-2.99843
738.127,-2.99959
738.627,-3.00066
739.127,-3.00164
739.627,-3.00256
740.127,-3.0034
740.627,-3.00417
741.127,-3.00489
741.627,-3.00555
742.127,-3.00615
742.627,-3.00671
743.127,-3.00722
743.627,-3.00769
744.127,-3.00812
744.627,-3.00851
745.127,-3.00888
745.627,-3.0092
746.127,-3.00951
746.627,-3.00978
747.027,-3.00998