File: ingan/robins_1999/in50/raman/curve_2_fit.dat
600.627,2.80318e-06
601.127,3.25368e-06
601.627,3.7733e-06
602.127,4.3721e-06
602.627,5.06154e-06
603.127,5.85461e-06
603.627,6.76607e-06
604.127,7.81265e-06
604.627,9.01328e-06
605.127,1.03894e-05
605.627,1.19652e-05
606.127,1.37681e-05
606.627,1.58289e-05
607.127,1.81824e-05
607.627,2.08677e-05
608.127,2.39288e-05
608.627,2.74151e-05
609.127,3.1382e-05
609.627,3.58919e-05
610.127,4.10142e-05
610.627,4.68269e-05
611.127,5.3417e-05
611.627,6.08817e-05
612.127,6.93293e-05
612.627,7.88806e-05
613.127,8.96699e-05
613.627,0.000101846
614.127,0.000115576
614.627,0.000131043
615.127,0.000148451
615.627,0.000168025
616.127,0.000190015
616.627,0.000214697
617.127,0.000242375
617.627,0.000273383
618.127,0.00030809
618.627,0.000346902
619.127,0.000390266
619.627,0.000438668
620.127,0.000492646
620.627,0.000552786
621.127,0.00061973
621.627,0.000694177
622.127,0.000776894
622.627,0.000868712
623.127,0.000970539
623.627,0.00108336
624.127,0.00120825
624.627,0.00134637
625.127,0.00149897
625.627,0.00166742
626.127,0.00185319
626.627,0.00205787
627.127,0.00228318
627.627,0.00253096
628.127,0.00280319
628.627,0.00310201
629.127,0.00342971
629.627,0.00378873
630.127,0.00418171
630.627,0.00461144
631.127,0.00508092
631.627,0.00559335
632.127,0.00615211
632.627,0.00676081
633.127,0.0074233
633.627,0.00814363
634.127,0.00892611
634.627,0.00977529
635.127,0.010696
635.627,0.0116932
636.127,0.0127723
636.627,0.0139389
637.127,0.0151989
637.627,0.0165584
638.127,0.0180238
638.627,0.0196019
639.127,0.0212996
639.627,0.0231244
640.127,0.0250836
640.627,0.0271853
641.127,0.0294375
641.627,0.0318486
642.127,0.0344274
642.627,0.0371826
643.127,0.0401235
643.627,0.0432594
644.127,0.0466
644.627,0.050155
645.127,0.0539343
645.627,0.0579481
646.127,0.0622066
646.627,0.0667202
647.127,0.0714991
647.627,0.0765538
648.127,0.0818948
648.627,0.0875324
649.127,0.0934769
649.627,0.0997385
650.127,0.106327
650.627,0.113253
651.127,0.120525
651.627,0.128153
652.127,0.136145
652.627,0.14451
653.127,0.153256
653.627,0.162391
654.127,0.17192
654.627,0.181851
655.127,0.192189
655.627,0.202938
656.127,0.214103
656.627,0.225685
657.127,0.237688
657.627,0.250112
658.127,0.262957
658.627,0.276222
659.127,0.289904
659.627,0.304
660.127,0.318505
660.627,0.333413
661.127,0.348715
661.627,0.364404
662.127,0.380467
662.627,0.396894
663.127,0.413672
663.627,0.430784
664.127,0.448215
664.627,0.465947
665.127,0.48396
665.627,0.502233
666.127,0.520744
666.627,0.539469
667.127,0.558383
667.627,0.577457
668.127,0.596666
668.627,0.615978
669.127,0.635364
669.627,0.654792
670.127,0.674228
670.627,0.693638
671.127,0.712989
671.627,0.732243
672.127,0.751365
672.627,0.770317
673.127,0.789062
673.627,0.807562
674.127,0.825779
674.627,0.843674
675.127,0.861208
675.627,0.878345
676.127,0.895046
676.627,0.911272
677.127,0.926988
677.627,0.942157
678.127,0.956743
678.627,0.970712
679.127,0.984031
679.627,0.996667
680.127,1.00859
680.627,1.01977
681.127,1.03018
681.627,1.03979
682.127,1.04858
682.627,1.05653
683.127,1.06361
683.627,1.06982
684.127,1.07512
684.627,1.07952
685.127,1.08299
685.627,1.08553
686.127,1.08714
686.627,1.0878
687.127,1.08751
687.627,1.08629
688.127,1.08412
688.627,1.08102
689.127,1.07699
689.627,1.07205
690.127,1.0662
690.627,1.05947
691.127,1.05186
691.627,1.04341
692.127,1.03412
692.627,1.02403
693.127,1.01315
693.627,1.00152
694.127,0.98917
694.627,0.976121
695.127,0.962408
695.627,0.948065
696.127,0.933125
696.627,0.917624
697.127,0.901597
697.627,0.885081
698.127,0.868115
698.627,0.850735
699.127,0.832979
699.627,0.814887
700.127,0.796495
700.627,0.777844
701.127,0.75897
701.627,0.739912
702.127,0.720706
702.627,0.70139
703.127,0.681999
703.627,0.662569
704.127,0.643134
704.627,0.623728
705.127,0.604382
705.627,0.585128
706.127,0.565997
706.627,0.547015
707.127,0.528212
707.627,0.509612
708.127,0.491241
708.627,0.473121
709.127,0.455275
709.627,0.437721
710.127,0.420479
710.627,0.403566
711.127,0.386997
711.627,0.370786
712.127,0.354946
712.627,0.339488
713.127,0.324422
713.627,0.309755
714.127,0.295495
714.627,0.281646
715.127,0.268214
715.627,0.255201
716.127,0.242608
716.627,0.230437
717.127,0.218686
717.627,0.207355
718.127,0.19644
718.627,0.185938
719.127,0.175845
719.627,0.166156
720.127,0.156864
720.627,0.147963
721.127,0.139447
721.627,0.131306
722.127,0.123534
722.627,0.11612
723.127,0.109057
723.627,0.102335
724.127,0.0959436
724.627,0.0898734
725.127,0.0841142
725.627,0.0786558
726.127,0.0734878
726.627,0.0685998
727.127,0.0639813
727.627,0.059622
728.127,0.0555115
728.627,0.0516396
729.127,0.0479961
729.627,0.0445709
730.127,0.0413542
730.627,0.0383365
731.127,0.035508
731.627,0.0328598
732.127,0.0303826
732.627,0.0280679
733.127,0.025907
733.627,0.0238917
734.127,0.022014
734.627,0.0202664
735.127,0.0186413
735.627,0.0171316
736.127,0.0157305
736.627,0.0144315
737.127,0.0132283
737.627,0.0121148
738.127,0.0110855
738.627,0.0101348
739.127,0.0092576
739.627,0.00844899
740.127,0.00770433
740.627,0.0070192
741.127,0.00638944
741.627,0.00581115
742.127,0.00528061
742.627,0.00479434
743.127,0.00434907
743.627,0.00394174
744.127,0.00356945
744.627,0.00322952
745.127,0.00291943
745.627,0.00263683
746.127,0.00237951
746.627,0.00214544
747.027,0.00197365