File: ingan/robins_1999/in50/raman/raman_peaks.csv
597.842, -2.95339
600.627, -2.94094
604.478, -2.91592
606.887, -2.87815
613.595, -2.84068
617.612, -2.79671
619.842, -2.75893
622.828, -2.72752
626.883, -2.68671
629.655, -2.65529
632.205, -2.61437
635.457, -2.55138
638.582, -2.51366
640.699, -2.46745
643.468, -2.43181
646.798, -2.37936
648.779, -2.34367
652.032, -2.28278
654.081, -2.24289
657.059, -2.19884
660.376, -2.12742
662.984, -2.06649
665.729, -1.99713
668.26, -1.92777
671.306, -1.85844
676.155, -1.74498
679.187, -1.69714
681.704, -1.69057
683.346, -1.68225
687.298, -1.69938
690.406, -1.7586
692.773, -1.82451
695.098, -1.89168
697.31, -1.98034
699.085, -2.05948
700.791, -2.14284
702.86, -2.2336
704.857, -2.32224
706.41, -2.39189
707.748, -2.46152
709.738, -2.54068
711.733, -2.62827
713.937, -2.70534
716.777, -2.77191
719.183, -2.83213
721.796, -2.87973
724.54, -2.91153
729.438, -2.94979
731.319, -2.97521
736.056, -2.98818
739.719, -3.00108
742.519, -3.0097
744.671, -3.01406
747.044, -3.02687