File: graphene/cuong_2010/crg/raman_peaks.csv
1104.32, 1.10492
1148.34, 1.13472
1192.26, 1.18568
1229.96, 1.28897
1253.53, 1.41473
1269.02, 1.55424
1282.46, 1.70599
1293.88, 1.85926
1321.19, 2.05273
1351.9, 1.89944
1368.73, 1.70345
1385.38, 1.55035
1408.04, 1.40298
1444.52, 1.31033
1488.64, 1.31116
1526.47, 1.3827
1549.99, 1.52072
1563.44, 1.66889
1590.87, 1.83321
1617.07, 1.63449
1624.37, 1.48134
1632.96, 1.33892
1661.81, 1.14732
1706.11, 1.10525
1744.26, 1.09524