File: ingan/robins_1999/in36/raman/curve_1_fit.dat
609.729,0.0101604
610.229,0.0107947
610.729,0.0114629
611.229,0.0121666
611.729,0.0129072
612.229,0.0136862
612.729,0.0145052
613.229,0.0153657
613.729,0.0162693
614.229,0.0172177
614.729,0.0182125
615.229,0.0192555
615.729,0.0203482
616.229,0.0214925
616.729,0.02269
617.229,0.0239427
617.729,0.0252522
618.229,0.0266203
618.729,0.028049
619.229,0.0295399
619.729,0.0310949
620.229,0.0327159
620.729,0.0344046
621.229,0.0361629
621.729,0.0379925
622.229,0.0398953
622.729,0.0418729
623.229,0.0439273
623.729,0.04606
624.229,0.0482727
624.729,0.0505671
625.229,0.0529448
625.729,0.0554073
626.229,0.0579562
626.729,0.0605927
627.229,0.0633184
627.729,0.0661345
628.229,0.0690423
628.729,0.0720428
629.229,0.0751371
629.729,0.0783262
630.229,0.0816109
630.729,0.084992
631.229,0.0884701
631.729,0.0920457
632.229,0.0957192
632.729,0.0994909
633.229,0.103361
633.729,0.107329
634.229,0.111395
634.729,0.11556
635.229,0.119821
635.729,0.124179
636.229,0.128633
636.729,0.133182
637.229,0.137825
637.729,0.14256
638.229,0.147386
638.729,0.152302
639.229,0.157304
639.729,0.162392
640.229,0.167563
640.729,0.172815
641.229,0.178144
641.729,0.183548
642.229,0.189024
642.729,0.194569
643.229,0.200179
643.729,0.20585
644.229,0.21158
644.729,0.217362
645.229,0.223195
645.729,0.229072
646.229,0.234989
646.729,0.240942
647.229,0.246926
647.729,0.252935
648.229,0.258964
648.729,0.265008
649.229,0.271061
649.729,0.277117
650.229,0.283171
650.729,0.289216
651.229,0.295247
651.729,0.301256
652.229,0.307239
652.729,0.313187
653.229,0.319096
653.729,0.324957
654.229,0.330765
654.729,0.336514
655.229,0.342195
655.729,0.347803
656.229,0.353331
656.729,0.358773
657.229,0.36412
657.729,0.369368
658.229,0.374509
658.729,0.379536
659.229,0.384444
659.729,0.389226
660.229,0.393876
660.729,0.398387
661.229,0.402754
661.729,0.40697
662.229,0.411031
662.729,0.41493
663.229,0.418662
663.729,0.422222
664.229,0.425605
664.729,0.428807
665.229,0.431822
665.729,0.434647
666.229,0.437278
666.729,0.43971
667.229,0.441941
667.729,0.443966
668.229,0.445784
668.729,0.447392
669.229,0.448787
669.729,0.449967
670.229,0.450931
670.729,0.451677
671.229,0.452204
671.729,0.452512
672.229,0.452599
672.729,0.452466
673.229,0.452113
673.729,0.45154
674.229,0.450748
674.729,0.449739
675.229,0.448514
675.729,0.447074
676.229,0.445423
676.729,0.443561
677.229,0.441492
677.729,0.439219
678.229,0.436745
678.729,0.434074
679.229,0.431209
679.729,0.428154
680.229,0.424915
680.729,0.421494
681.229,0.417898
681.729,0.41413
682.229,0.410197
682.729,0.406104
683.229,0.401855
683.729,0.397458
684.229,0.392918
684.729,0.38824
685.229,0.383431
685.729,0.378498
686.229,0.373446
686.729,0.368282
687.229,0.363013
687.729,0.357645
688.229,0.352186
688.729,0.34664
689.229,0.341016
689.729,0.33532
690.229,0.329559
690.729,0.323739
691.229,0.317867
691.729,0.31195
692.229,0.305994
692.729,0.300005
693.229,0.293991
693.729,0.287957
694.229,0.281909
694.729,0.275854
695.229,0.269798
695.729,0.263747
696.229,0.257705
696.729,0.25168
697.229,0.245676
697.729,0.239698
698.229,0.233752
698.729,0.227843
699.229,0.221974
699.729,0.216152
700.229,0.21038
700.729,0.204663
701.229,0.199004
701.729,0.193407
702.229,0.187876
702.729,0.182415
703.229,0.177026
703.729,0.171713
704.229,0.166478
704.729,0.161324
705.229,0.156254
705.729,0.151269
706.229,0.146372
706.729,0.141565
707.229,0.136849
707.729,0.132226
708.229,0.127697
708.729,0.123263
709.229,0.118924
709.729,0.114683
710.229,0.110539
710.729,0.106493
711.229,0.102546
711.729,0.0986963
712.229,0.0949451
712.729,0.091292
713.229,0.0877368
713.729,0.084279
714.229,0.080918
714.729,0.0776533
715.229,0.0744841
715.729,0.0714094
716.229,0.0684283
716.729,0.0655398
717.229,0.0627426
717.729,0.0600356
718.229,0.0574174
718.729,0.0548867
719.229,0.052442
719.729,0.0500818
720.229,0.0478046
720.729,0.0456087
721.229,0.0434925
721.729,0.0414543
722.229,0.0394923
722.729,0.037605
723.229,0.0357904
723.729,0.0340468
724.229,0.0323723
724.729,0.0307653
725.229,0.0292237
725.729,0.027746
726.229,0.0263301
726.729,0.0249743
727.229,0.0236768
727.729,0.0224358
728.229,0.0212495
728.729,0.0201161
729.229,0.0190339
729.729,0.0180012
730.229,0.0170162
730.729,0.0160773
731.229,0.0151828
731.729,0.014331
732.229,0.0135205
732.729,0.0127496
733.229,0.0120169
733.729,0.0113207
734.229,0.0106596
734.729,0.0100323
735.229,0.00943732
735.729,0.00887329
736.229,0.00833891
736.729,0.0078329
737.229,0.00735401
737.729,0.00690104
738.229,0.00647282
738.729,0.00606822
739.229,0.00568614
739.729,0.00532552
740.229,0.00498535
740.729,0.00466463
741.229,0.00436242
741.729,0.00407781
742.229,0.00380991
742.729,0.00355788
743.229,0.0033209
743.729,0.0030982
744.229,0.00288903
744.729,0.00269267
745.229,0.00250843
745.729,0.00233566
746.229,0.00217373
746.729,0.00202205
747.229,0.00188003
747.729,0.00174714
748.229,0.00162285
748.729,0.00150667
749.229,0.00139813
749.729,0.00129677
750.229,0.00120218
750.729,0.00111394
751.229,0.00103168
751.729,0.000955028
752.229,0.000883642
752.729,0.000817193
753.229,0.000755373
753.729,0.00069789
754.229,0.000644468
754.729,0.000594845
755.229,0.000548776
755.629,0.000514323