File: ingan/robins_1999/in36/raman/curve_total_fit.dat
609.729,0.0383713
610.229,0.0390056
610.729,0.0396738
611.229,0.0403775
611.729,0.0411181
612.229,0.0418971
612.729,0.0427161
613.229,0.0435766
613.729,0.0444802
614.229,0.0454286
614.729,0.0464234
615.229,0.0474664
615.729,0.0485591
616.229,0.0497034
616.729,0.0509009
617.229,0.0521536
617.729,0.0534631
618.229,0.0548312
618.729,0.0562599
619.229,0.0577508
619.729,0.0593058
620.229,0.0609268
620.729,0.0626155
621.229,0.0643738
621.729,0.0662034
622.229,0.0681062
622.729,0.0700839
623.229,0.0721382
623.729,0.0742709
624.229,0.0764836
624.729,0.0787781
625.229,0.0811558
625.729,0.0836183
626.229,0.0861671
626.729,0.0888037
627.229,0.0915295
627.729,0.0943456
628.229,0.0972534
628.729,0.100254
629.229,0.103348
629.729,0.106537
630.229,0.109822
630.729,0.113204
631.229,0.116682
631.729,0.120258
632.229,0.123931
632.729,0.127703
633.229,0.131573
633.729,0.135542
634.229,0.139609
634.729,0.143774
635.229,0.148036
635.729,0.152395
636.229,0.15685
636.729,0.1614
637.229,0.166045
637.729,0.170782
638.229,0.17561
638.729,0.180528
639.229,0.185534
639.729,0.190626
640.229,0.195802
640.729,0.201059
641.229,0.206395
641.729,0.211807
642.229,0.217293
642.729,0.222849
643.229,0.228473
643.729,0.23416
644.229,0.239908
644.729,0.245714
645.229,0.251572
645.729,0.25748
646.229,0.263433
646.729,0.269429
647.229,0.275461
647.729,0.281528
648.229,0.287624
648.729,0.293746
649.229,0.299889
649.729,0.306049
650.229,0.312224
650.729,0.318408
651.229,0.324598
651.729,0.330792
652.229,0.336985
652.729,0.343175
653.229,0.34936
653.729,0.355537
654.229,0.361704
654.729,0.36786
655.229,0.374005
655.729,0.380138
656.229,0.38626
656.729,0.39237
657.229,0.398473
657.729,0.404569
658.229,0.410662
658.729,0.416757
659.229,0.422859
659.729,0.428973
660.229,0.435107
660.729,0.441269
661.229,0.447469
661.729,0.453716
662.229,0.460022
662.729,0.4664
663.229,0.472864
663.729,0.479427
664.229,0.486107
664.729,0.492919
665.229,0.499883
665.729,0.507016
666.229,0.514339
666.729,0.521873
667.229,0.529637
667.729,0.537655
668.229,0.545949
668.729,0.55454
669.229,0.563452
669.729,0.572706
670.229,0.582326
670.729,0.592331
671.229,0.602745
671.729,0.613585
672.229,0.624871
672.729,0.63662
673.229,0.648846
673.729,0.661564
674.229,0.674783
674.729,0.688512
675.229,0.702755
675.729,0.717515
676.229,0.73279
676.729,0.748575
677.229,0.764861
677.729,0.781633
678.229,0.798874
678.729,0.816562
679.229,0.83467
679.729,0.853165
680.229,0.872012
680.729,0.891169
681.229,0.910589
681.729,0.930222
682.229,0.950012
682.729,0.969898
683.229,0.989817
683.729,1.0097
684.229,1.02947
684.729,1.04906
685.229,1.06839
685.729,1.08738
686.229,1.10594
686.729,1.12399
687.229,1.14144
687.729,1.15821
688.229,1.17422
688.729,1.18937
689.229,1.20359
689.729,1.21679
690.229,1.22889
690.729,1.23982
691.229,1.24952
691.729,1.2579
692.229,1.26491
692.729,1.2705
693.229,1.27461
693.729,1.2772
694.229,1.27824
694.729,1.27769
695.229,1.27554
695.729,1.27176
696.229,1.26636
696.729,1.25934
697.229,1.25071
697.729,1.24048
698.229,1.22868
698.729,1.21535
699.229,1.20053
699.729,1.18426
700.229,1.1666
700.729,1.14762
701.229,1.12738
701.729,1.10596
702.229,1.08342
702.729,1.05987
703.229,1.03537
703.729,1.01002
704.229,0.983917
704.729,0.957144
705.229,0.9298
705.729,0.901979
706.229,0.873775
706.729,0.845282
707.229,0.816592
707.729,0.787796
708.229,0.758981
708.729,0.730232
709.229,0.701632
709.729,0.673259
710.229,0.645185
710.729,0.617481
711.229,0.590211
711.729,0.563436
712.229,0.53721
712.729,0.511583
713.229,0.486599
713.729,0.462299
714.229,0.438716
714.729,0.415879
715.229,0.393813
715.729,0.372536
716.229,0.352064
716.729,0.332405
717.229,0.313567
717.729,0.29555
718.229,0.278352
718.729,0.261968
719.229,0.246388
719.729,0.2316
720.229,0.217591
720.729,0.204342
721.229,0.191835
721.729,0.180048
722.229,0.168959
722.729,0.158544
723.229,0.148778
723.729,0.139636
724.229,0.13109
724.729,0.123115
725.229,0.115683
725.729,0.108767
726.229,0.10234
726.729,0.0963774
727.229,0.0908515
727.729,0.0857373
728.229,0.0810101
728.729,0.0766456
729.229,0.0726208
729.729,0.0689132
730.229,0.0655014
730.729,0.0623648
731.229,0.059484
731.729,0.0568402
732.229,0.054416
732.729,0.0521948
733.229,0.0501609
733.729,0.0482996
734.229,0.0465971
734.729,0.0450407
735.229,0.0436184
735.729,0.0423189
736.229,0.0411321
736.729,0.0400482
737.229,0.0390585
737.729,0.0381547
738.229,0.0373295
738.729,0.0365758
739.229,0.0358874
739.729,0.0352584
740.229,0.0346835
740.729,0.034158
741.229,0.0336773
741.729,0.0332375
742.229,0.0328348
742.729,0.032466
743.229,0.032128
743.729,0.0318181
744.229,0.0315337
744.729,0.0312726
745.229,0.0310328
745.729,0.0308124
746.229,0.0306097
746.729,0.0304231
747.229,0.0302514
747.729,0.0300932
748.229,0.0299474
748.729,0.029813
749.229,0.029689
749.729,0.0295746
750.229,0.029469
750.729,0.0293715
751.229,0.0292814
751.729,0.0291982
752.229,0.0291213
752.729,0.0290503
753.229,0.0289846
753.729,0.0289239
754.229,0.0288678
754.729,0.028816
755.229,0.0287681
755.629,0.0287324