File: ingan/robins_1999/in36/raman/curve_2_fit.dat
609.729,1.37045e-11
610.229,1.82838e-11
610.729,2.43524e-11
611.229,3.2381e-11
611.729,4.29847e-11
612.229,5.69653e-11
612.729,7.5367e-11
613.229,9.95464e-11
613.729,1.31263e-10
614.229,1.72797e-10
614.729,2.27091e-10
615.229,2.97948e-10
615.729,3.90259e-10
616.229,5.10316e-10
616.729,6.66193e-10
617.229,8.68229e-10
617.729,1.12965e-09
618.229,1.46732e-09
618.729,1.90274e-09
619.229,2.46325e-09
619.729,3.18354e-09
620.229,4.10759e-09
620.729,5.291e-09
621.229,6.80396e-09
621.729,8.73493e-09
622.229,1.11952e-08
622.729,1.43244e-08
623.229,1.82977e-08
623.729,2.33339e-08
624.229,2.97067e-08
624.729,3.77568e-08
625.229,4.79081e-08
625.729,6.06871e-08
626.229,7.67464e-08
626.729,9.68931e-08
627.229,1.22124e-07
627.729,1.53668e-07
628.229,1.93037e-07
628.729,2.42087e-07
629.229,3.03092e-07
629.729,3.78837e-07
630.229,4.72719e-07
630.729,5.88882e-07
631.229,7.32364e-07
631.729,9.09284e-07
632.229,1.12706e-06
632.729,1.39465e-06
633.229,1.7229e-06
633.729,2.12484e-06
634.229,2.61618e-06
634.729,3.21576e-06
635.229,3.94613e-06
635.729,4.83431e-06
636.229,5.91249e-06
636.729,7.21905e-06
637.229,8.79962e-06
637.729,1.07083e-05
638.229,1.30092e-05
638.729,1.57782e-05
639.229,1.91045e-05
639.729,2.30934e-05
640.229,2.78685e-05
640.729,3.35748e-05
641.229,4.03819e-05
641.729,4.8488e-05
642.229,5.81239e-05
642.729,6.95584e-05
643.229,8.31033e-05
643.729,9.91198e-05
644.229,0.000118026
644.729,0.000140303
645.229,0.000166506
645.729,0.000197272
646.229,0.000233333
646.729,0.000275525
647.229,0.000324803
647.729,0.000382254
648.229,0.000449115
648.729,0.00052679
649.229,0.000616865
649.729,0.000721136
650.229,0.000841624
650.729,0.000980601
651.229,0.00114062
651.729,0.00132453
652.229,0.00153553
652.729,0.00177716
653.229,0.00205339
653.729,0.00236858
654.229,0.00272758
654.729,0.00313576
655.229,0.00359899
655.729,0.00412375
656.229,0.00471713
656.729,0.00538688
657.229,0.00614144
657.729,0.00699
658.229,0.0079425
658.729,0.00900973
659.229,0.0102033
659.729,0.0115356
660.229,0.0130202
660.729,0.0146712
661.229,0.016504
661.729,0.0185347
662.229,0.0207805
662.729,0.0232595
663.229,0.0259907
663.729,0.0289941
664.229,0.0322905
664.729,0.0359016
665.229,0.0398498
665.729,0.0441584
666.229,0.048851
666.729,0.053952
667.229,0.059486
667.729,0.0654781
668.229,0.0719534
668.729,0.078937
669.229,0.0864536
669.729,0.0945278
670.229,0.103183
670.729,0.112443
671.229,0.122329
671.729,0.132863
672.229,0.144061
672.729,0.155943
673.229,0.168523
673.729,0.181813
674.229,0.195824
674.729,0.210561
675.229,0.22603
675.729,0.24223
676.229,0.259157
676.729,0.276803
677.229,0.295157
677.729,0.314203
678.229,0.333918
678.729,0.354277
679.229,0.37525
679.729,0.3968
680.229,0.418887
680.729,0.441464
681.229,0.464481
681.729,0.487881
682.229,0.511603
682.729,0.535583
683.229,0.55975
683.729,0.58403
684.229,0.608345
684.729,0.632614
685.229,0.656751
685.729,0.68067
686.229,0.704281
686.729,0.727494
687.229,0.750217
687.729,0.772356
688.229,0.79382
688.729,0.814518
689.229,0.834359
689.729,0.853254
690.229,0.87112
690.729,0.887874
691.229,0.903438
691.729,0.917739
692.229,0.930709
692.729,0.942284
693.229,0.95241
693.729,0.961036
694.229,0.96812
694.729,0.973626
695.229,0.977528
695.729,0.979805
696.229,0.980447
696.729,0.97945
697.229,0.976819
697.729,0.972567
698.229,0.966716
698.729,0.959295
699.229,0.95034
699.729,0.939895
700.229,0.928012
700.729,0.914749
701.229,0.900168
701.729,0.884339
702.229,0.867338
702.729,0.849241
703.229,0.830133
703.729,0.810099
704.229,0.789228
704.729,0.767609
705.229,0.745336
705.729,0.722499
706.229,0.699192
706.729,0.675506
707.229,0.651532
707.729,0.627359
708.229,0.603073
708.729,0.578759
709.229,0.554497
709.729,0.530365
710.229,0.506435
710.729,0.482777
711.229,0.459455
711.729,0.436529
712.229,0.414054
712.729,0.39208
713.229,0.370652
713.729,0.349809
714.229,0.329587
714.729,0.310015
715.229,0.291118
715.729,0.272916
716.229,0.255425
716.729,0.238655
717.229,0.222613
717.729,0.207303
718.229,0.192724
718.729,0.17887
719.229,0.165735
719.729,0.153308
720.229,0.141575
720.729,0.130522
721.229,0.120131
721.729,0.110383
722.229,0.101256
722.729,0.0927283
723.229,0.084777
723.729,0.0773781
724.229,0.0705069
724.729,0.0641385
725.229,0.0582479
725.729,0.0528098
726.229,0.0477995
726.729,0.0431922
727.229,0.0389638
727.729,0.0350906
728.229,0.0315497
728.729,0.0283186
729.229,0.025376
729.729,0.0227011
730.229,0.0202743
730.729,0.0180767
731.229,0.0160903
731.729,0.0142983
732.229,0.0126846
732.729,0.0112342
733.229,0.0099331
733.729,0.00876797
734.229,0.00772658
734.729,0.00679751
735.229,0.00597015
735.729,0.00523474
736.229,0.00458224
736.729,0.00400438
737.229,0.00349354
737.729,0.00304278
738.229,0.00264575
738.729,0.00229668
739.229,0.00199033
739.729,0.00172197
740.229,0.0014873
740.729,0.00128246
741.229,0.00110399
741.729,0.000948768
742.229,0.000814007
742.729,0.00069722
743.229,0.000596191
743.729,0.00050895
744.229,0.000433748
744.729,0.000369041
745.229,0.000313462
745.729,0.000265809
746.229,0.000225023
746.729,0.000190177
747.229,0.000160459
747.729,0.000135159
748.229,0.000113657
748.729,9.54164e-05
749.229,7.99693e-05
749.729,6.6911e-05
750.229,5.58914e-05
750.729,4.66087e-05
751.229,3.88027e-05
751.729,3.22501e-05
752.229,2.67592e-05
752.729,2.21662e-05
753.229,1.83308e-05
753.729,1.51337e-05
754.229,1.24733e-05
754.729,1.02635e-05
755.229,8.431e-06
755.629,7.19489e-06