File: ingan/robins_1999/in36/raman/raman_peaks.csv
605.319, 0.0236957
609.729, 0.0170707
618.647, 0.0493316
622.507, 0.06171
628.589, 0.091637
634.709, 0.150221
639.69, 0.198346
645.958, 0.250597
650.529, 0.31013
656.671, 0.377984
661.124, 0.45607
665.672, 0.537942
670.834, 0.619771
675.954, 0.739535
680.347, 0.859349
683.202, 0.976107
687.606, 1.1328
692.758, 1.27714
697.556, 1.27067
702.464, 1.09174
704.926, 0.951223
707.176, 0.80693
709.432, 0.65505
712.328, 0.509447
716.636, 0.341622
720.215, 0.234536
725.192, 0.159054
728.726, 0.110042
735.78, 0.063197
742.114, 0.0206159
745.132, 0.00776471
750.433, 0.00740035
755.663, 0.00704091