File: ingan/ager_2005/in100/raman_peaks.csv
457.72, 1.06467
463.372, 1.02566
469.024, 1.02893
474.677, 1.02419
480.329, 1.05327
484.611, 1.12687
486.701, 1.23463
487.934, 1.40452
488.679, 1.59341
489.623, 1.73718
492.818, 1.89466
496.112, 1.63684
496.772, 1.53049
498.057, 1.39674
498.4, 1.27594
499.65, 1.162
501.34, 1.01137
504.88, 0.920465
510.132, 0.890176
515.785, 0.860955
521.18, 0.833349
548.113, 0.799346
548.113, 0.799346
548.113, 0.799346
548.113, 0.799346
548.157, 0.795199
549.057, 0.799297
553.81, 0.779775
559.462, 0.788387
565.114, 0.827264
570.767, 0.847448
576.419, 0.872083
582.071, 0.972829
587.921, 0.99646
593.119, 0.962825
598.258, 0.87786
603.653, 0.783891
609.305, 0.758676
614.958, 0.752154
620.61, 0.715366
626.263, 0.701723
631.915, 0.701433
636.283, 0.706995