File: si/sood_1992/film_a/raman_peaks.csv
477.805, -1.56199
478.502, -1.55292
479.46, -1.53815
480.419, -1.54976
481.377, -1.48497
482.325, -1.46459
483.264, -1.40157
484.251, -1.44203
485.209, -1.43954
486.646, -1.37591
487.629, -1.35501
488.519, -1.32919
489.477, -1.33656
490.174, -1.24905
490.871, -1.14039
491.829, -1.15154
492.787, -1.08447
493.745, -0.978296
494.66, -0.894367
495.574, -0.861008
496.402, -0.78317
497.281, -0.684173
498.168, -0.739556
499.145, -0.676022
500.104, -0.640334
501.062, -0.563717
502.02, -0.522571
502.978, -0.556009
503.936, -0.611275
504.894, -0.733393
505.852, -0.710893
506.81, -0.740237
507.632, -0.824055
508.422, -0.930287
509.336, -1.01753
510.294, -1.06098
511.166, -1.162
511.819, -1.2443
512.646, -1.37924
513.604, -1.43223
514.562, -1.45321
515.434, -1.54774
516.305, -1.6149
517.001, -1.7211
517.698, -1.83333
518.656, -1.88859
519.583, -1.85592
520.573, -1.90954
521.531, -1.98118
522.489, -2.03599
523.476, -2.03126
523.882, -2.19393
524.405, -2.21701
525.363, -2.15858
526.234, -2.28678
527.105, -2.34556